=~=~=~=~=~=~=~=~=~=~=~= PuTTY log 2025.03.26 20:14:29 =~=~=~=~=~=~=~=~=~=~=~=
Choisissez la methode :
1 - Chronoamperometrie
2 - Voltammetrie cyclique
Methode selectionnee : Voltammetrie cyclique
Entrez E1 (en Volts) :
Entrez E2 (en Volts) :
Entrez la vitesse de balayage (en V/s) :
Entrez le nombre de cycles :
Parametres enregistres.
E1 = -1.00 V, E2 = 1.00 V, Vitesse = 0.50 V/s
Cycles = 2.00
Entrez le facteur d'affichage (valeur par défaut = 1, valeur utilisée pour les mesures = 4) :
Facteur d'affichage choisi : 1
Entrez 'ok' pour commencer l'expérience.
Debut
Temps (s) tension_theo (mV) tension_exp (mV)
0.0039;1000.00;1000.00
0.0078;998.04;998.04
0.0117;996.09;996.09
0.0156;994.13;996.09
0.0196;992.18;992.18
0.0235;990.22;992.18
0.0274;988.27;990.22
0.0313;986.31;988.27
0.0352;984.36;984.36
0.0391;982.40;984.36
0.0430;980.45;982.40
0.0469;978.49;980.45
0.0508;976.54;980.45
0.0547;974.58;976.54
0.0587;972.63;974.58
0.0626;970.67;972.63
0.0665;968.72;970.67
0.0704;966.76;968.72
0.0743;964.81;966.76
0.0782;962.85;964.81
0.0821;960.90;962.85
0.0860;958.94;960.90
0.0899;956.99;958.94
0.0938;955.03;956.99
0.0978;953.08;955.03
0.1017;951.12;953.08
0.1056;949.17;951.12
0.1095;947.21;949.17
0.1134;945.26;949.17
0.1173;943.30;945.26
0.1212;941.35;943.30
0.1251;939.39;941.35
0.1290;937.44;941.35
0.1329;935.48;937.44
0.1369;933.53;935.48
0.1408;931.57;933.53
0.1447;929.62;933.53
0.1486;927.66;929.62
0.1525;925.71;927.66
0.1564;923.75;925.71
0.1603;921.80;925.71
0.1642;919.84;923.75
0.1681;917.89;921.80
0.1720;915.93;917.89
0.1760;913.98;917.89
0.1799;912.02;913.98
0.1838;910.07;912.02
0.1877;908.11;912.02
0.1916;906.16;910.07
0.1955;904.20;908.11
0.1994;902.25;906.16
0.2033;900.29;904.20
0.2072;898.34;902.25
0.2111;896.38;900.29
0.2151;894.43;898.34
0.2190;892.47;896.38
0.2229;890.52;894.43
0.2268;888.56;894.43
0.2307;886.61;890.52
0.2346;884.65;888.56
0.2385;882.70;886.61
0.2424;880.74;884.65
0.2463;878.79;882.70
0.2502;876.83;880.74
0.2542;874.88;878.79
0.2581;872.92;876.83
0.2620;870.97;874.88
0.2659;869.01;872.92
0.2698;867.06;870.97
0.2737;865.10;869.01
0.2776;863.15;867.06
0.2815;861.19;867.06
0.2854;859.24;863.15
0.2893;857.28;863.15
0.2933;855.33;859.24
0.2972;853.37;857.28
0.3011;851.42;855.33
0.3050;849.46;853.37
0.3089;847.51;851.42
0.3128;845.55;851.42
0.3167;843.60;847.51
0.3206;841.64;847.51
0.3245;839.69;843.60
0.3284;837.73;843.60
0.3324;835.78;841.64
0.3363;833.82;837.73
0.3402;831.87;837.73
0.3441;829.91;835.78
0.3480;827.96;835.78
0.3519;826.00;831.87
0.3558;824.05;829.91
0.3597;822.09;827.96
0.3636;820.14;826.00
0.3675;818.18;824.05
0.3715;816.23;822.09
0.3754;814.27;820.14
0.3793;812.32;818.18
0.3832;810.36;816.23
0.3871;808.41;814.27
0.3910;806.45;812.32
0.3949;804.50;808.41
0.3988;802.54;808.41
0.4027;800.59;806.45
0.4066;798.63;804.50
0.4106;796.68;804.50
0.4145;794.72;800.59
0.4184;792.77;798.63
0.4223;790.81;796.68
0.4262;788.86;794.72
0.4301;786.90;792.77
0.4340;784.95;790.81
0.4379;782.99;788.86
0.4418;781.04;786.90
0.4457;779.08;786.90
0.4497;777.13;782.99
0.4536;775.17;782.99
0.4575;773.22;779.08
0.4614;771.26;779.08
0.4653;769.31;777.13
0.4692;767.35;777.13
0.4731;765.40;773.22
0.4770;763.44;771.26
0.4809;761.49;769.31
0.4848;759.53;765.40
0.4888;757.58;765.40
0.4927;755.62;763.44
0.4966;753.67;761.49
0.5005;751.71;757.58
0.5044;749.76;757.58
0.5083;747.80;755.62
0.5122;745.85;753.67
0.5161;743.89;749.76
0.5200;741.94;749.76
0.5239;739.98;745.85
0.5279;738.03;745.85
0.5318;736.07;743.89
0.5357;734.12;741.94
0.5396;732.16;739.98
0.5435;730.21;738.03
0.5474;728.25;736.07
0.5513;726.30;734.12
0.5552;724.34;732.16
0.5591;722.39;730.21
0.5630;720.43;726.30
0.5670;718.48;726.30
0.5709;716.52;726.30
0.5748;714.57;722.39
0.5787;712.61;718.48
0.5826;710.65;718.48
0.5865;708.70;718.48
0.5904;706.74;714.57
0.5943;704.79;712.61
0.5982;702.83;708.70
0.6022;700.88;708.70
0.6061;698.92;706.74
0.6100;696.97;704.79
0.6139;695.01;704.79
0.6178;693.06;702.83
0.6217;691.10;700.88
0.6256;689.15;698.92
0.6295;687.19;696.97
0.6334;685.24;693.06
0.6373;683.28;691.10
0.6413;681.33;689.15
0.6452;679.37;687.19
0.6491;677.42;687.19
0.6530;675.46;683.28
0.6569;673.51;683.28
0.6608;671.55;679.37
0.6647;669.60;677.42
0.6686;667.64;675.46
0.6725;665.69;675.46
0.6764;663.73;673.51
0.6804;661.78;671.55
0.6843;659.82;667.64
0.6882;657.87;667.64
0.6921;655.91;663.73
0.6960;653.96;663.73
0.6999;652.00;661.78
0.7038;650.05;659.82
0.7077;648.09;657.87
0.7116;646.14;655.91
0.7155;644.18;653.96
0.7195;642.23;653.96
0.7234;640.27;650.05
0.7273;638.32;648.09
0.7312;636.36;646.14
0.7351;634.41;644.18
0.7390;632.45;642.23
0.7429;630.50;640.27
0.7468;628.54;638.32
0.7507;626.59;636.36
0.7546;624.63;634.41
0.7586;622.68;632.45
0.7625;620.72;632.45
0.7664;618.77;628.54
0.7703;616.81;626.59
0.7742;614.86;624.63
0.7781;612.90;624.63
0.7820;610.95;620.72
0.7859;608.99;618.77
0.7898;607.04;616.81
0.7937;605.08;616.81
0.7977;603.13;612.90
0.8016;601.17;612.90
0.8055;599.22;608.99
0.8094;597.26;608.99
0.8133;595.31;605.08
0.8172;593.35;605.08
0.8211;591.40;601.17
0.8250;589.44;601.17
0.8289;587.49;597.26
0.8328;585.53;597.26
0.8368;583.58;595.31
0.8407;581.62;593.35
0.8446;579.67;589.44
0.8485;577.71;589.44
0.8524;575.76;587.49
0.8563;573.80;585.53
0.8602;571.85;583.58
0.8641;569.89;581.62
0.8680;567.94;581.62
0.8719;565.98;577.71
0.8759;564.03;575.76
0.8798;562.07;573.80
0.8837;560.12;571.85
0.8876;558.16;569.89
0.8915;556.21;569.89
0.8954;554.25;565.98
0.8993;552.30;565.98
0.9032;550.34;562.07
0.9071;548.39;562.07
0.9110;546.43;558.16
0.9150;544.48;556.21
0.9189;542.52;554.25
0.9228;540.57;554.25
0.9267;538.61;550.34
0.9306;536.66;550.34
0.9345;534.70;546.43
0.9384;532.75;546.43
0.9423;530.79;544.48
0.9462;528.84;542.52
0.9501;526.88;540.57
0.9541;524.93;538.61
0.9580;522.97;536.66
0.9619;521.02;534.70
0.9658;519.06;530.79
0.9697;517.11;528.84
0.9736;515.15;528.84
0.9775;513.20;526.88
0.9814;511.24;524.93
0.9853;509.29;522.97
0.9892;507.33;521.02
0.9932;505.38;519.06
0.9971;503.42;517.11
1.0010;501.47;515.15
1.0049;499.51;513.20
1.0088;497.56;511.24
1.0127;495.60;509.29
1.0166;493.65;507.33
1.0205;491.69;505.38
1.0244;489.74;503.42
1.0283;487.78;501.47
1.0323;485.83;499.51
1.0362;483.87;497.56
1.0401;481.92;495.60
1.0440;479.96;493.65
1.0479;478.01;491.69
1.0518;476.05;489.74
1.0557;474.10;487.78
1.0596;472.14;485.83
1.0635;470.19;483.87
1.0674;468.23;481.92
1.0714;466.28;479.96
1.0753;464.32;479.96
1.0792;462.37;476.05
1.0831;460.41;474.10
1.0870;458.46;472.14
1.0909;456.50;470.19
1.0948;454.55;468.23
1.0987;452.59;468.23
1.1026;450.64;464.32
1.1065;448.68;462.37
1.1105;446.73;462.37
1.1144;444.77;460.41
1.1183;442.82;456.50
1.1222;440.86;456.50
1.1261;438.91;454.55
1.1300;436.95;450.64
1.1339;435.00;450.64
1.1378;433.04;446.73
1.1417;431.09;446.73
1.1456;429.13;442.82
1.1496;427.17;442.82
1.1535;425.22;438.91
1.1574;423.26;438.91
1.1613;421.31;436.95
1.1652;419.35;435.00
1.1691;417.40;433.04
1.1730;415.44;431.09
1.1769;413.49;427.17
1.1808;411.53;427.17
1.1847;409.58;425.22
1.1887;407.62;423.26
1.1926;405.67;421.31
1.1965;403.71;419.35
1.2004;401.76;417.40
1.2043;399.80;415.44
1.2082;397.85;413.49
1.2121;395.89;409.58
1.2160;393.94;411.53
1.2199;391.98;407.62
1.2239;390.03;407.62
1.2278;388.07;403.71
1.2317;386.12;401.76
1.2356;384.16;399.80
1.2395;382.21;397.85
1.2434;380.25;397.85
1.2473;378.30;393.94
1.2512;376.34;393.94
1.2551;374.39;391.98
1.2590;372.43;390.03
1.2630;370.48;388.07
1.2669;368.52;386.12
1.2708;366.57;382.21
1.2747;364.61;380.25
1.2786;362.66;380.25
1.2825;360.70;378.30
1.2864;358.75;376.34
1.2903;356.79;374.39
1.2942;354.84;370.48
1.2981;352.88;370.48
1.3021;350.93;366.57
1.3060;348.97;366.57
1.3099;347.02;364.61
1.3138;345.06;362.66
1.3177;343.11;360.70
1.3216;341.15;358.75
1.3255;339.20;356.79
1.3294;337.24;354.84
1.3333;335.29;352.88
1.3372;333.33;350.93
1.3412;331.38;348.97
1.3451;329.42;347.02
1.3490;327.47;345.06
1.3529;325.51;343.11
1.3568;323.56;341.15
1.3607;321.60;339.20
1.3646;319.65;337.24
1.3685;317.69;335.29
1.3724;315.74;333.33
1.3763;313.78;333.33
1.3803;311.83;331.38
1.3842;309.87;327.47
1.3881;307.92;325.51
1.3920;305.96;323.56
1.3959;304.01;321.60
1.3998;302.05;319.65
1.4037;300.10;319.65
1.4076;298.14;315.74
1.4115;296.19;315.74
1.4154;294.23;311.83
1.4194;292.28;309.87
1.4233;290.32;307.92
1.4272;288.37;305.96
1.4311;286.41;304.01
1.4350;284.46;304.01
1.4389;282.50;300.10
1.4428;280.55;300.10
1.4467;278.59;294.23
1.4506;276.64;296.19
1.4545;274.68;292.28
1.4585;272.73;292.28
1.4624;270.77;290.32
1.4663;268.82;288.37
1.4702;266.86;286.41
1.4741;264.91;284.46
1.4780;262.95;280.55
1.4819;261.00;280.55
1.4858;259.04;278.59
1.4897;257.09;276.64
1.4936;255.13;274.68
1.4976;253.18;270.77
1.5015;251.22;270.77
1.5054;249.27;268.82
1.5093;247.31;266.86
1.5132;245.36;264.91
1.5171;243.40;262.95
1.5210;241.45;261.00
1.5249;239.49;259.04
1.5288;237.54;255.13
1.5327;235.58;255.13
1.5367;233.63;253.18
1.5406;231.67;251.22
1.5445;229.72;247.31
1.5484;227.76;245.36
1.5523;225.81;245.36
1.5562;223.85;243.40
1.5601;221.90;241.45
1.5640;219.94;239.49
1.5679;217.99;237.54
1.5718;216.03;235.58
1.5758;214.08;231.67
1.5797;212.12;231.67
1.5836;210.17;229.72
1.5875;208.21;229.72
1.5914;206.26;225.81
1.5953;204.30;223.85
1.5992;202.35;219.94
1.6031;200.39;219.94
1.6070;198.44;217.99
1.6109;196.48;216.03
1.6149;194.53;212.12
1.6188;192.57;212.12
1.6227;190.62;210.17
1.6266;188.66;206.26
1.6305;186.71;206.26
1.6344;184.75;204.30
1.6383;182.80;204.30
1.6422;180.84;200.39
1.6461;178.89;198.44
1.6500;176.93;196.48
1.6540;174.98;194.53
1.6579;173.02;192.57
1.6618;171.07;192.57
1.6657;169.11;188.66
1.6696;167.16;188.66
1.6735;165.20;186.71
1.6774;163.25;184.75
1.6813;161.29;182.80
1.6852;159.34;178.89
1.6891;157.38;176.93
1.6931;155.43;174.98
1.6970;153.47;174.98
1.7009;151.52;173.02
1.7048;149.56;171.07
1.7087;147.61;169.11
1.7126;145.65;165.20
1.7165;143.70;163.25
1.7204;141.74;163.25
1.7243;139.78;159.34
1.7282;137.83;159.34
1.7322;135.87;155.43
1.7361;133.92;155.43
1.7400;131.96;153.47
1.7439;130.01;151.52
1.7478;128.05;147.61
1.7517;126.10;147.61
1.7556;124.14;143.70
1.7595;122.19;143.70
1.7634;120.23;141.74
1.7673;118.28;141.74
1.7713;116.32;137.83
1.7752;114.37;135.87
1.7791;112.41;133.92
1.7830;110.46;130.01
1.7869;108.50;130.01
1.7908;106.55;128.05
1.7947;104.59;128.05
1.7986;102.64;126.10
1.8025;100.68;122.19
1.8064;98.73;116.32
1.8104;96.77;71.36
1.8143;94.82;116.32
1.8182;92.86;110.46
1.8221;90.91;65.49
1.8260;88.95;112.41
1.8299;87.00;104.59
1.8338;85.04;61.58
1.8377;83.09;106.55
1.8416;81.13;98.73
1.8456;79.18;57.67
1.8495;77.22;96.77
1.8534;75.27;53.76
1.8573;73.31;92.86
1.8612;71.36;51.81
1.8651;69.40;88.95
1.8690;67.45;47.90
1.8729;65.49;83.09
1.8768;63.54;43.99
1.8807;61.58;81.13
1.8847;59.63;38.12
1.8886;57.67;75.27
1.8925;55.72;36.17
1.8964;53.76;73.31
1.9003;51.81;32.26
1.9042;49.85;69.40
1.9081;47.90;28.35
1.9120;45.94;65.49
1.9159;43.99;24.44
1.9198;42.03;63.54
1.9238;40.08;20.53
1.9277;38.12;57.67
1.9316;36.17;16.62
1.9355;34.21;53.76
1.9394;32.26;12.71
1.9433;30.30;49.85
1.9472;28.35;8.80
1.9511;26.39;2.93
1.9550;24.44;43.99
1.9589;22.48;0.98
1.9629;20.53;-2.93
1.9668;18.57;42.03
1.9707;16.62;-8.80
1.9746;14.66;40.08
1.9785;12.71;-8.80
1.9824;10.75;34.21
1.9863;8.80;-8.80
1.9902;6.84;-16.62
1.9941;4.89;30.30
1.9980;2.93;-14.66
2.0020;0.98;20.53
2.0059;-0.98;-20.53
2.0098;-2.93;20.53
2.0137;-4.89;-26.39
2.0176;-6.84;-26.39
2.0215;-8.80;14.66
2.0254;-10.75;8.80
2.0293;-12.71;-30.30
2.0332;-14.66;-34.21
2.0371;-16.62;-34.21
2.0411;-18.57;-36.17
2.0450;-20.53;-38.12
2.0489;-22.48;-42.03
2.0528;-24.44;-43.99
2.0567;-26.39;-45.94
2.0606;-28.35;-47.90
2.0645;-30.30;-49.85
2.0684;-32.26;-51.81
2.0723;-34.21;-53.76
2.0762;-36.17;-53.76
2.0802;-38.12;-57.67
2.0841;-40.08;-57.67
2.0880;-42.03;-59.63
2.0919;-43.99;-63.54
2.0958;-45.94;-65.49
2.0997;-47.90;-65.49
2.1036;-49.85;-69.40
2.1075;-51.81;-69.40
2.1114;-53.76;-73.31
2.1153;-55.72;-73.31
2.1193;-57.67;-77.22
2.1232;-59.63;-77.22
2.1271;-61.58;-79.18
2.1310;-63.54;-81.13
2.1349;-65.49;-81.13
2.1388;-67.45;-85.04
2.1427;-69.40;-87.00
2.1466;-71.36;-88.95
2.1505;-73.31;-90.91
2.1544;-75.27;-94.82
2.1584;-77.22;-94.82
2.1623;-79.18;-96.77
2.1662;-81.13;-96.77
2.1701;-83.09;-98.73
2.1740;-85.04;-102.64
2.1779;-87.00;-106.55
2.1818;-88.95;-69.40
2.1857;-90.91;-71.36
2.1896;-92.86;-73.31
2.1935;-94.82;-75.27
2.1975;-96.77;-77.22
2.2014;-98.73;-77.22
2.2053;-100.68;-77.22
2.2092;-102.64;-120.23
2.2131;-104.59;-83.09
2.2170;-106.55;-81.13
2.2209;-108.50;-126.10
2.2248;-110.46;-88.95
2.2287;-112.41;-85.04
2.2326;-114.37;-131.96
2.2366;-116.32;-94.82
2.2405;-118.28;-92.86
2.2444;-120.23;-137.83
2.2483;-122.19;-100.68
2.2522;-124.14;-141.74
2.2561;-126.10;-106.55
2.2600;-128.05;-143.70
2.2639;-130.01;-110.46
2.2678;-131.96;-149.56
2.2717;-133.92;-110.46
2.2757;-135.87;-151.52
2.2796;-137.83;-116.32
2.2835;-139.78;-155.43
2.2874;-141.74;-120.23
2.2913;-143.70;-157.38
2.2952;-145.65;-124.14
2.2991;-147.61;-163.25
2.3030;-149.56;-130.01
2.3069;-151.52;-165.20
2.3108;-153.47;-131.96
2.3148;-155.43;-169.11
2.3187;-157.38;-135.87
2.3226;-159.34;-176.93
2.3265;-161.29;-141.74
2.3304;-163.25;-176.93
2.3343;-165.20;-145.65
2.3382;-167.16;-180.84
2.3421;-169.11;-147.61
2.3460;-171.07;-186.71
2.3499;-173.02;-155.43
2.3539;-174.98;-192.57
2.3578;-176.93;-159.34
2.3617;-178.89;-192.57
2.3656;-180.84;-167.16
2.3695;-182.80;-196.48
2.3734;-184.75;-174.98
2.3773;-186.71;-202.35
2.3812;-188.66;-188.66
2.3851;-190.62;-204.30
2.3890;-192.57;-204.30
2.3930;-194.53;-210.17
2.3969;-196.48;-216.03
2.4008;-198.44;-212.12
2.4047;-200.39;-221.90
2.4086;-202.35;-216.03
2.4125;-204.30;-223.85
2.4164;-206.26;-219.94
2.4203;-208.21;-229.72
2.4242;-210.17;-225.81
2.4282;-212.12;-231.67
2.4321;-214.08;-227.76
2.4360;-216.03;-237.54
2.4399;-217.99;-233.63
2.4438;-219.94;-239.49
2.4477;-221.90;-235.58
2.4516;-223.85;-245.36
2.4555;-225.81;-239.49
2.4594;-227.76;-249.27
2.4633;-229.72;-243.40
2.4673;-231.67;-253.18
2.4712;-233.63;-247.31
2.4751;-235.58;-255.13
2.4790;-237.54;-251.22
2.4829;-239.49;-259.04
2.4868;-241.45;-257.09
2.4907;-243.40;-262.95
2.4946;-245.36;-259.04
2.4985;-247.31;-266.86
2.5024;-249.27;-262.95
2.5064;-251.22;-270.77
2.5103;-253.18;-268.82
2.5142;-255.13;-274.68
2.5181;-257.09;-274.68
2.5220;-259.04;-276.64
2.5259;-261.00;-274.68
2.5298;-262.95;-280.55
2.5337;-264.91;-278.59
2.5376;-266.86;-286.41
2.5415;-268.82;-280.55
2.5455;-270.77;-288.37
2.5494;-272.73;-286.41
2.5533;-274.68;-292.28
2.5572;-276.64;-288.37
2.5611;-278.59;-298.14
2.5650;-280.55;-292.28
2.5689;-282.50;-300.10
2.5728;-284.46;-296.19
2.5767;-286.41;-304.01
2.5806;-288.37;-302.05
2.5846;-290.32;-307.92
2.5885;-292.28;-304.01
2.5924;-294.23;-311.83
2.5963;-296.19;-307.92
2.6002;-298.14;-315.74
2.6041;-300.10;-311.83
2.6080;-302.05;-317.69
2.6119;-304.01;-315.74
2.6158;-305.96;-321.60
2.6197;-307.92;-319.65
2.6237;-309.87;-327.47
2.6276;-311.83;-323.56
2.6315;-313.78;-331.38
2.6354;-315.74;-327.47
2.6393;-317.69;-333.33
2.6432;-319.65;-331.38
2.6471;-321.60;-337.24
2.6510;-323.56;-337.24
2.6549;-325.51;-343.11
2.6588;-327.47;-339.20
2.6628;-329.42;-345.06
2.6667;-331.38;-343.11
2.6706;-333.33;-348.97
2.6745;-335.29;-347.02
2.6784;-337.24;-354.84
2.6823;-339.20;-352.88
2.6862;-341.15;-358.75
2.6901;-343.11;-354.84
2.6940;-345.06;-360.70
2.6979;-347.02;-356.79
2.7019;-348.97;-364.61
2.7058;-350.93;-364.61
2.7097;-352.88;-368.52
2.7136;-354.84;-366.57
2.7175;-356.79;-372.43
2.7214;-358.75;-370.48
2.7253;-360.70;-374.39
2.7292;-362.66;-374.39
2.7331;-364.61;-380.25
2.7370;-366.57;-376.34
2.7410;-368.52;-384.16
2.7449;-370.48;-382.21
2.7488;-372.43;-386.12
2.7527;-374.39;-384.16
2.7566;-376.34;-391.98
2.7605;-378.30;-388.07
2.7644;-380.25;-395.89
2.7683;-382.21;-395.89
2.7722;-384.16;-397.85
2.7761;-386.12;-397.85
2.7801;-388.07;-401.76
2.7840;-390.03;-397.85
2.7879;-391.98;-405.67
2.7918;-393.94;-403.71
2.7957;-395.89;-411.53
2.7996;-397.85;-407.62
2.8035;-399.80;-415.44
2.8074;-401.76;-411.53
2.8113;-403.71;-419.35
2.8152;-405.67;-415.44
2.8192;-407.62;-421.31
2.8231;-409.58;-421.31
2.8270;-411.53;-425.22
2.8309;-413.49;-425.22
2.8348;-415.44;-429.13
2.8387;-417.40;-429.13
2.8426;-419.35;-433.04
2.8465;-421.31;-431.09
2.8504;-423.26;-438.91
2.8543;-425.22;-435.00
2.8583;-427.18;-440.86
2.8622;-429.13;-440.86
2.8661;-431.09;-446.73
2.8700;-433.04;-440.86
2.8739;-435.00;-446.73
2.8778;-436.95;-444.77
2.8817;-438.91;-452.59
2.8856;-440.86;-450.64
2.8895;-442.82;-458.46
2.8934;-444.77;-454.55
2.8974;-446.73;-460.41
2.9013;-448.68;-456.50
2.9052;-450.64;-464.32
2.9091;-452.59;-460.41
2.9130;-454.55;-466.28
2.9169;-456.50;-466.28
2.9208;-458.46;-472.14
2.9247;-460.41;-466.28
2.9286;-462.37;-474.10
2.9325;-464.32;-472.14
2.9365;-466.28;-478.01
2.9404;-468.23;-476.05
2.9443;-470.19;-481.92
2.9482;-472.14;-479.96
2.9521;-474.10;-485.83
2.9560;-476.05;-483.87
2.9599;-478.01;-491.69
2.9638;-479.96;-487.78
2.9677;-481.92;-493.65
2.9716;-483.87;-491.69
2.9756;-485.83;-497.56
2.9795;-487.78;-495.60
2.9834;-489.74;-499.51
2.9873;-491.69;-499.51
2.9912;-493.65;-507.33
2.9951;-495.60;-503.42
2.9990;-497.56;-509.29
3.0029;-499.51;-507.33
3.0068;-501.47;-511.24
3.0108;-503.42;-511.24
3.0147;-505.38;-519.06
3.0186;-507.33;-515.15
3.0225;-509.29;-521.02
3.0264;-511.24;-519.06
3.0303;-513.20;-526.88
3.0342;-515.15;-522.97
3.0381;-517.11;-526.88
3.0420;-519.06;-528.84
3.0459;-521.02;-530.79
3.0499;-522.97;-530.79
3.0538;-524.93;-536.66
3.0577;-526.88;-534.70
3.0616;-528.84;-538.61
3.0655;-530.79;-538.61
3.0694;-532.75;-544.48
3.0733;-534.70;-542.52
3.0772;-536.66;-546.43
3.0811;-538.61;-548.39
3.0850;-540.57;-554.25
3.0890;-542.52;-548.39
3.0929;-544.48;-554.25
3.0968;-546.43;-552.30
3.1007;-548.39;-558.16
3.1046;-550.34;-556.21
3.1085;-552.30;-562.07
3.1124;-554.25;-560.12
3.1163;-556.21;-565.98
3.1202;-558.16;-564.03
3.1241;-560.12;-571.85
3.1281;-562.07;-571.85
3.1320;-564.03;-575.76
3.1359;-565.98;-571.85
3.1398;-567.94;-577.71
3.1437;-569.89;-575.76
3.1476;-571.85;-581.62
3.1515;-573.80;-579.67
3.1554;-575.76;-585.53
3.1593;-577.71;-583.58
3.1632;-579.67;-591.40
3.1672;-581.62;-589.44
3.1711;-583.58;-593.35
3.1750;-585.53;-591.40
3.1789;-587.49;-595.31
3.1828;-589.44;-595.31
3.1867;-591.40;-599.22
3.1906;-593.35;-599.22
3.1945;-595.31;-605.08
3.1984;-597.26;-603.13
3.2023;-599.22;-607.04
3.2063;-601.17;-607.04
3.2102;-603.13;-610.95
3.2141;-605.08;-612.90
3.2180;-607.04;-616.81
3.2219;-608.99;-614.86
3.2258;-610.95;-622.68
3.2297;-612.90;-618.77
3.2336;-614.86;-622.68
3.2375;-616.81;-622.68
3.2414;-618.77;-630.50
3.2454;-620.72;-628.54
3.2493;-622.68;-632.45
3.2532;-624.63;-630.50
3.2571;-626.59;-634.41
3.2610;-628.54;-632.45
3.2649;-630.50;-638.32
3.2688;-632.45;-638.32
3.2727;-634.41;-642.23
3.2766;-636.36;-642.23
3.2805;-638.32;-646.14
3.2845;-640.27;-644.18
3.2884;-642.23;-648.09
3.2923;-644.18;-650.05
3.2962;-646.14;-655.91
3.3001;-648.09;-652.00
3.3040;-650.05;-657.87
3.3079;-652.00;-655.91
3.3118;-653.96;-661.78
3.3157;-655.91;-661.78
3.3196;-657.87;-663.73
3.3236;-659.82;-669.60
3.3275;-661.78;-669.60
3.3314;-663.73;-667.64
3.3353;-665.69;-673.51
3.3392;-667.64;-671.55
3.3431;-669.60;-677.42
3.3470;-671.55;-675.46
3.3509;-673.51;-681.33
3.3548;-675.46;-681.33
