=~=~=~=~=~=~=~=~=~=~=~= PuTTY log 2025.03.26 20:04:45 =~=~=~=~=~=~=~=~=~=~=~=
Choisissez la methode :
1 - Chronoamperometrie
2 - Voltammetrie cyclique
Entree invalide. Veuillez choisir 1 ou 2.
Methode selectionnee : Voltammetrie cyclique
Entrez E1 (en Volts) :
Entrez E2 (en Volts) :
Entrez la vitesse de balayage (en V/s) :
Entrez le nombre de cycles :
Parametres enregistres.
E1 = -0.50 V, E2 = 0.50 V, Vitesse = 0.10 V/s
Cycles = 2.00
Entrez le facteur d'affichage (valeur par défaut = 1, valeur utilisée pour les mesures = 4) :
Facteur d'affichage choisi : 1
Entrez 'ok' pour commencer l'expérience.
Veuillez entrer 'ok' pour commencer l'expérience.
Debut
Temps (s) tension_theo (mV) tension_exp (mV)
0.0196;501.47;671.55
0.0391;499.51;517.11
0.0587;497.56;517.11
0.0782;495.60;511.24
0.0978;493.65;513.20
0.1173;491.69;509.29
0.1369;489.74;509.29
0.1564;487.78;505.38
0.1760;485.83;503.42
0.1955;483.87;501.47
0.2151;481.92;499.51
0.2346;479.96;499.51
0.2542;478.01;497.56
0.2737;476.05;495.60
0.2933;474.10;493.65
0.3128;472.14;491.69
0.3324;470.19;489.74
0.3519;468.23;485.83
0.3715;466.28;485.83
0.3910;464.32;483.87
0.4106;462.37;481.92
0.4301;460.41;479.96
0.4497;458.46;478.01
0.4692;456.50;474.10
0.4888;454.55;474.10
0.5083;452.59;470.19
0.5279;450.64;470.19
0.5474;448.68;468.23
0.5670;446.73;466.28
0.5865;444.77;462.37
0.6061;442.82;460.41
0.6256;440.86;462.37
0.6452;438.91;458.46
0.6647;436.95;456.50
0.6843;435.00;456.50
0.7038;433.04;452.59
0.7234;431.09;450.64
0.7429;429.13;448.68
0.7625;427.17;446.73
0.7820;425.22;444.77
0.8016;423.26;442.82
0.8211;421.31;440.86
0.8407;419.35;438.91
0.8602;417.40;435.00
0.8798;415.44;436.95
0.8993;413.49;435.00
0.9189;411.53;431.09
0.9384;409.58;431.09
0.9580;407.62;429.13
0.9775;405.67;425.22
0.9971;403.71;425.22
1.0166;401.76;421.31
1.0362;399.80;419.35
1.0557;397.85;417.40
1.0753;395.89;417.40
1.0948;393.94;415.44
1.1144;391.98;413.49
1.1339;390.03;413.49
1.1535;388.07;411.53
1.1730;386.12;407.62
1.1926;384.16;407.62
1.2121;382.21;403.71
1.2317;380.25;401.76
1.2512;378.30;399.80
1.2708;376.34;399.80
1.2903;374.39;395.89
1.3099;372.43;393.94
1.3294;370.48;393.94
1.3490;368.52;390.03
1.3685;366.57;388.07
1.3881;364.61;386.12
1.4076;362.66;386.12
1.4272;360.70;382.21
1.4467;358.75;380.25
1.4663;356.79;380.25
1.4858;354.84;376.34
1.5054;352.88;374.39
1.5249;350.93;374.39
1.5445;348.97;370.48
1.5640;347.02;368.52
1.5836;345.06;370.48
1.6031;343.11;366.57
1.6227;341.15;366.57
1.6422;339.20;362.66
1.6618;337.24;360.70
1.6813;335.29;358.75
1.7009;333.33;354.84
1.7204;331.38;354.84
1.7400;329.42;350.93
1.7595;327.47;350.93
1.7791;325.51;352.88
1.7986;323.56;345.06
1.8182;321.60;347.02
1.8377;319.65;345.06
1.8573;317.69;341.15
1.8768;315.74;339.20
1.8964;313.78;337.24
1.9159;311.83;335.29
1.9355;309.87;333.33
1.9550;307.92;331.38
1.9746;305.96;331.38
1.9941;304.01;329.42
2.0137;302.05;325.51
2.0332;300.10;323.56
2.0528;298.14;323.56
2.0723;296.19;319.65
2.0919;294.23;319.65
2.1114;292.28;315.74
2.1310;290.32;315.74
2.1505;288.37;309.87
2.1701;286.41;311.83
2.1896;284.46;307.92
2.2092;282.50;307.92
2.2287;280.55;304.01
2.2483;278.59;304.01
2.2678;276.64;302.05
2.2874;274.68;302.05
2.3069;272.73;298.14
2.3265;270.77;296.19
2.3460;268.82;294.23
2.3656;266.86;292.28
2.3851;264.91;288.37
2.4047;262.95;286.41
2.4242;261.00;284.46
2.4438;259.04;284.46
2.4633;257.09;282.50
2.4829;255.13;280.55
2.5024;253.18;276.64
2.5220;251.22;276.64
2.5415;249.27;274.68
2.5611;247.31;272.73
2.5806;245.36;270.77
2.6002;243.40;204.30
2.6197;241.45;266.86
2.6393;239.49;264.91
2.6588;237.54;262.95
2.6784;235.58;261.00
2.6979;233.63;255.13
2.7175;231.67;255.13
2.7370;229.72;255.13
2.7566;227.76;253.18
2.7761;225.81;249.27
2.7957;223.85;249.27
2.8152;221.90;245.36
2.8348;219.94;245.36
2.8543;217.99;239.49
2.8739;216.03;239.49
2.8934;214.08;237.54
2.9130;212.12;239.49
2.9325;210.17;235.58
2.9521;208.21;233.63
2.9716;206.26;231.67
2.9912;204.30;229.72
3.0108;202.35;225.81
3.0303;200.39;223.85
3.0499;198.44;221.90
3.0694;196.48;219.94
3.0890;194.53;217.99
3.1085;192.57;217.99
3.1281;190.62;217.99
3.1476;188.66;216.03
3.1672;186.71;212.12
3.1867;184.75;212.12
3.2063;182.80;208.21
3.2258;180.84;206.26
3.2454;178.89;206.26
3.2649;176.93;202.35
3.2845;174.98;202.35
3.3040;173.02;135.87
3.3236;171.07;196.48
3.3431;169.11;196.48
3.3627;167.16;196.48
3.3822;165.20;190.62
3.4018;163.25;190.62
3.4213;161.29;186.71
3.4409;159.34;186.71
3.4604;157.38;182.80
3.4800;155.43;178.89
3.4995;153.47;180.84
3.5191;151.52;180.84
3.5386;149.56;176.93
3.5582;147.61;176.93
3.5777;145.65;171.07
3.5973;143.70;171.07
3.6168;141.74;169.11
3.6364;139.78;167.16
3.6559;137.83;165.20
3.6755;135.87;163.25
3.6950;133.92;161.29
3.7146;131.96;159.34
3.7341;130.01;157.38
3.7537;128.05;153.47
3.7732;126.10;155.43
3.7928;124.14;151.52
3.8123;122.19;149.56
3.8319;120.23;149.56
3.8514;118.28;143.70
3.8710;116.32;143.70
3.8905;114.37;141.74
3.9101;112.41;139.78
3.9296;110.46;139.78
3.9492;108.50;135.87
3.9687;106.55;133.92
3.9883;104.59;133.92
4.0078;102.64;130.01
4.0274;100.68;128.05
4.0469;98.73;130.01
4.0665;96.77;122.19
4.0860;94.82;61.58
4.1056;92.86;122.19
4.1251;90.91;120.23
4.1447;88.95;53.76
4.1642;87.00;118.28
4.1838;85.04;108.50
4.2033;83.09;51.81
4.2229;81.13;114.37
4.2424;79.18;108.50
4.2620;77.22;43.99
4.2815;75.27;108.50
4.3011;73.31;102.64
4.3206;71.36;40.08
4.3402;69.40;100.68
4.3597;67.45;96.77
4.3793;65.49;36.17
4.3988;63.54;90.91
4.4184;61.58;34.21
4.4379;59.63;87.00
4.4575;57.67;30.30
4.4770;55.72;85.04
4.4966;53.76;24.44
4.5161;51.81;83.09
4.5357;49.85;20.53
4.5552;47.90;14.66
4.5748;45.94;18.57
4.5943;43.99;73.31
4.6139;42.03;77.22
4.6334;40.08;6.84
4.6530;38.12;71.36
4.6725;36.17;4.89
4.6921;34.21;63.54
4.7116;32.26;2.93
4.7312;30.30;-0.98
4.7507;28.35;63.54
4.7703;26.39;-2.93
4.7898;24.44;55.72
4.8094;22.48;-8.80
4.8289;20.53;55.72
4.8485;18.57;-12.71
4.8680;16.62;51.81
4.8876;14.66;45.94
4.9071;12.71;-14.66
4.9267;10.75;45.94
4.9462;8.80;40.08
4.9658;6.84;43.99
4.9853;4.89;-20.53
5.0049;2.93;-30.30
5.0244;0.98;38.12
5.0440;-0.98;-28.35
5.0635;-2.93;-32.26
5.0831;-4.89;32.26
5.1026;-6.84;-38.12
5.1222;-8.80;-38.12
5.1417;-10.75;22.48
5.1613;-12.71;18.57
5.1808;-14.66;-40.08
5.2004;-16.62;-42.03
5.2199;-18.57;-43.99
5.2395;-20.53;-49.85
5.2590;-22.48;-47.90
5.2786;-24.44;-51.81
5.2981;-26.39;-53.76
5.3177;-28.35;-55.72
5.3372;-30.30;-55.72
5.3568;-32.26;-59.63
5.3763;-34.21;-61.58
5.3959;-36.17;-63.54
5.4154;-38.12;-65.49
5.4350;-40.08;-4.89
5.4545;-42.03;-6.84
5.4741;-43.99;-10.75
5.4936;-45.94;-12.71
5.5132;-47.90;-16.62
5.5327;-49.85;-14.66
5.5523;-51.81;-16.62
5.5718;-53.76;-18.57
5.5914;-55.72;-20.53
5.6109;-57.67;-24.44
5.6305;-59.63;-30.30
5.6500;-61.58;-90.91
5.6696;-63.54;-28.35
5.6891;-65.49;-28.35
5.7087;-67.45;-32.26
5.7282;-69.40;-38.12
5.7478;-71.36;-38.12
5.7673;-73.31;-40.08
5.7869;-75.27;-42.03
5.8064;-77.22;-47.90
5.8260;-79.18;-47.90
5.8455;-81.13;-47.90
5.8651;-83.09;-47.90
5.8846;-85.04;-53.76
5.9042;-87.00;-116.32
5.9237;-88.95;-49.85
5.9433;-90.91;-51.81
5.9628;-92.86;-55.72
5.9824;-94.82;-55.72
6.0020;-96.77;-61.58
6.0215;-98.73;-59.63
6.0411;-100.68;-69.40
6.0606;-102.64;-67.45
6.0802;-104.59;-63.54
6.0997;-106.55;-131.96
6.1193;-108.50;-69.40
6.1388;-110.46;-133.92
6.1584;-112.41;-77.22
6.1779;-114.37;-77.22
6.1975;-116.32;-139.78
6.2170;-118.28;-83.09
6.2366;-120.23;-79.18
6.2561;-122.19;-145.65
6.2757;-124.14;-88.95
6.2952;-126.10;-88.95
6.3148;-128.05;-153.47
6.3343;-130.01;-96.77
6.3539;-131.96;-92.86
6.3734;-133.92;-157.38
6.3930;-135.87;-102.64
6.4125;-137.83;-163.25
6.4321;-139.78;-102.64
6.4516;-141.74;-163.25
6.4712;-143.70;-106.55
6.4907;-145.65;-167.16
6.5103;-147.61;-110.46
6.5298;-149.56;-171.07
6.5494;-151.52;-114.37
6.5689;-153.47;-176.93
6.5885;-155.43;-118.28
6.6080;-157.38;-114.37
6.6276;-159.34;-122.19
6.6471;-161.29;-186.71
6.6667;-163.25;-128.05
6.6862;-165.20;-186.71
6.7058;-167.16;-128.05
6.7253;-169.11;-192.57
6.7449;-171.07;-139.78
6.7644;-173.02;-194.53
6.7840;-174.98;-145.65
6.8035;-176.93;-200.39
6.8231;-178.89;-141.74
6.8426;-180.84;-202.35
6.8622;-182.80;-161.29
6.8817;-184.75;-206.26
6.9013;-186.71;-174.98
6.9208;-188.66;-210.17
6.9404;-190.62;-194.53
6.9599;-192.57;-214.08
6.9795;-194.53;-221.90
6.9990;-196.48;-153.47
7.0186;-198.44;-225.81
7.0381;-200.39;-221.90
7.0577;-202.35;-227.76
7.0772;-204.30;-163.25
7.0968;-206.26;-231.67
7.1163;-208.21;-231.67
7.1359;-210.17;-167.16
7.1554;-212.12;-233.63
7.1750;-214.08;-237.54
7.1945;-216.03;-235.58
7.2141;-217.99;-178.89
7.2336;-219.94;-245.36
7.2532;-221.90;-249.27
7.2727;-223.85;-243.40
7.2923;-225.81;-186.71
7.3118;-227.76;-251.22
7.3314;-229.72;-188.66
7.3509;-231.67;-253.18
7.3705;-233.63;-259.04
7.3900;-235.58;-190.62
7.4096;-237.54;-262.95
7.4291;-239.49;-262.95
7.4487;-241.45;-266.86
7.4682;-243.40;-198.44
7.4878;-245.36;-270.77
7.5073;-247.31;-266.86
7.5269;-249.27;-274.68
7.5464;-251.22;-270.77
7.5660;-253.18;-278.59
7.5855;-255.13;-272.73
7.6051;-257.09;-280.55
7.6246;-259.04;-276.64
7.6442;-261.00;-284.46
7.6637;-262.95;-284.46
7.6833;-264.91;-221.90
7.7028;-266.86;-223.85
7.7224;-268.82;-225.81
7.7419;-270.77;-290.32
7.7615;-272.73;-229.72
7.7810;-274.68;-294.23
7.8006;-276.64;-298.14
7.8201;-278.59;-298.14
7.8397;-280.55;-237.54
7.8592;-282.50;-302.05
7.8788;-284.46;-307.92
7.8983;-286.41;-305.96
7.9179;-288.37;-247.31
7.9374;-290.32;-309.87
7.9570;-292.28;-315.74
7.9765;-294.23;-313.78
7.9961;-296.19;-317.69
8.0156;-298.14;-317.69
8.0352;-300.10;-323.56
8.0547;-302.05;-321.60
8.0743;-304.01;-329.42
8.0938;-305.96;-323.56
8.1134;-307.92;-262.95
8.1329;-309.87;-329.42
8.1525;-311.83;-268.82
8.1720;-313.78;-331.38
8.1916;-315.74;-270.77
8.2111;-317.69;-335.29
8.2307;-319.65;-343.11
8.2502;-321.60;-272.73
8.2698;-323.56;-280.55
8.2893;-325.51;-345.06
8.3089;-327.47;-350.93
8.3284;-329.42;-347.02
8.3480;-331.38;-352.88
8.3675;-333.33;-352.88
8.3871;-335.29;-292.28
8.4066;-337.24;-356.79
8.4262;-339.20;-362.66
8.4457;-341.15;-358.75
8.4653;-343.11;-298.14
8.4848;-345.06;-364.61
8.5044;-347.02;-368.52
8.5239;-348.97;-366.57
8.5435;-350.93;-305.96
8.5630;-352.88;-370.48
8.5826;-354.84;-309.87
8.6021;-356.79;-372.43
8.6217;-358.75;-313.78
8.6412;-360.70;-376.34
8.6608;-362.66;-388.07
8.6803;-364.61;-384.16
8.6999;-366.57;-388.07
8.7194;-368.52;-384.16
8.7390;-370.48;-391.98
8.7585;-372.43;-390.03
8.7781;-374.39;-329.42
8.7976;-376.34;-391.98
8.8172;-378.30;-399.80
8.8367;-380.25;-397.85
8.8563;-382.21;-335.29
8.8758;-384.16;-401.76
8.8954;-386.12;-341.15
8.9149;-388.07;-403.71
8.9345;-390.03;-409.58
8.9540;-391.98;-339.20
8.9736;-393.94;-348.97
8.9931;-395.89;-411.53
9.0127;-397.85;-352.88
9.0322;-399.80;-413.49
9.0518;-401.76;-421.31
9.0714;-403.71;-421.31
9.0909;-405.67;-423.26
9.1105;-407.62;-425.22
9.1300;-409.58;-427.18
9.1496;-411.53;-429.13
9.1691;-413.49;-366.57
9.1887;-415.44;-431.09
9.2082;-417.40;-436.95
9.2278;-419.35;-436.95
9.2473;-421.31;-378.30
9.2669;-423.26;-438.91
9.2864;-425.22;-386.12
9.3060;-427.18;-440.86
9.3255;-429.13;-393.94
9.3451;-431.09;-448.68
9.3646;-433.04;-450.64
9.3842;-435.00;-448.68
9.4037;-436.95;-454.55
9.4233;-438.91;-452.59
9.4428;-440.86;-458.46
9.4624;-442.82;-456.50
9.4819;-444.77;-464.32
9.5015;-446.73;-462.37
9.5210;-448.68;-468.23
9.5406;-450.64;-464.32
9.5601;-452.59;-470.19
9.5797;-454.55;-468.23
9.5992;-456.50;-474.10
9.6188;-458.46;-472.14
9.6383;-460.41;-479.96
9.6579;-462.37;-476.05
9.6774;-464.32;-481.92
9.6970;-466.28;-478.01
9.7165;-468.23;-485.83
9.7361;-470.19;-483.87
9.7556;-472.14;-491.69
9.7752;-474.10;-483.87
9.7947;-476.05;-493.65
9.8143;-478.01;-491.69
9.8338;-479.96;-497.56
9.8534;-481.92;-495.60
9.8729;-483.87;-499.51
9.8925;-485.83;-501.47
9.9120;-487.78;-503.42
9.9316;-489.74;-505.38
9.9511;-491.69;-509.29
9.9707;-493.65;-505.38
9.9902;-495.60;-509.29
10.0098;-497.56;-513.20
10.0293;-499.51;-515.15
10.0489;-499.51;-515.15
10.0684;-497.56;-515.15
10.0880;-495.60;-515.15
10.1075;-493.65;-513.20
10.1271;-491.69;-513.20
10.1466;-489.74;-505.38
10.1662;-487.78;-436.95
10.1857;-485.83;-505.38
10.2053;-483.87;-501.47
10.2248;-481.92;-497.56
10.2444;-479.96;-431.09
10.2639;-478.01;-497.56
10.2835;-476.05;-495.60
10.3030;-474.10;-423.26
10.3226;-472.14;-423.26
10.3421;-470.19;-489.74
10.3617;-468.23;-489.74
10.3812;-466.28;-483.87
10.4008;-464.32;-485.83
10.4203;-462.37;-483.87
10.4399;-460.41;-479.96
10.4594;-458.46;-476.05
10.4790;-456.50;-478.01
10.4985;-454.55;-478.01
10.5181;-452.59;-472.14
10.5376;-450.64;-468.23
10.5572;-448.68;-399.80
10.5767;-446.73;-468.23
10.5963;-444.77;-464.32
10.6158;-442.82;-460.41
10.6354;-440.86;-395.89
10.6549;-438.91;-458.46
10.6745;-436.95;-456.50
10.6940;-435.00;-390.03
10.7136;-433.04;-386.12
10.7331;-431.09;-452.59
10.7527;-429.13;-448.68
10.7722;-427.18;-446.73
10.7918;-425.22;-380.25
10.8113;-423.26;-384.16
10.8309;-421.31;-440.86
10.8504;-419.35;-370.48
10.8700;-417.40;-440.86
10.8895;-415.44;-436.95
10.9091;-413.49;-435.00
10.9286;-411.53;-429.13
10.9482;-409.58;-362.66
10.9677;-407.62;-431.09
10.9873;-405.67;-425.22
11.0068;-403.71;-356.79
11.0264;-401.76;-354.84
11.0459;-399.80;-419.35
11.0655;-397.85;-419.35
11.0850;-395.89;-348.97
11.1046;-393.94;-348.97
11.1241;-391.98;-413.49
11.1437;-390.03;-411.53
11.1632;-388.07;-405.67
11.1828;-386.12;-337.24
11.2023;-384.16;-407.62
11.2219;-382.21;-403.71
11.2414;-380.25;-401.76
11.2610;-378.30;-335.29
11.2805;-376.34;-399.80
11.3001;-374.39;-393.94
11.3196;-372.43;-391.98
11.3392;-370.48;-327.47
11.3587;-368.52;-393.94
11.3783;-366.57;-391.98
11.3978;-364.61;-386.12
11.4174;-362.66;-317.69
11.4369;-360.70;-384.16
11.4565;-358.75;-380.25
11.4760;-356.79;-307.92
11.4956;-354.84;-309.87
11.5151;-352.88;-378.30
11.5347;-350.93;-374.39
11.5542;-348.97;-370.48
11.5738;-347.02;-302.05
11.5933;-345.06;-370.48
11.6129;-343.11;-370.48
11.6324;-341.15;-360.70
11.6520;-339.20;-296.19
11.6715;-337.24;-362.66
11.6911;-335.29;-358.75
11.7106;-333.33;-352.88
11.7302;-331.38;-290.32
11.7497;-329.42;-354.84
11.7693;-327.47;-352.88
11.7888;-325.51;-345.06
11.8084;-323.56;-282.50
11.8279;-321.60;-347.02
11.8475;-319.65;-343.11
11.8670;-317.69;-272.73
11.8866;-315.74;-272.73
11.9061;-313.78;-337.24
11.9257;-311.83;-337.24
11.9452;-309.87;-331.38
11.9648;-307.92;-264.91
11.9843;-305.96;-333.33
12.0039;-304.01;-323.56
12.0234;-302.05;-257.09
12.0430;-300.10;-259.04
12.0626;-298.14;-259.04
12.0821;-296.19;-321.60
12.1017;-294.23;-315.74
12.1212;-292.28;-247.31
12.1408;-290.32;-317.69
12.1603;-288.37;-313.78
12.1799;-286.41;-309.87
12.1994;-284.46;-239.49
12.2190;-282.50;-307.92
12.2385;-280.55;-305.96
12.2581;-278.59;-302.05
12.2776;-276.64;-233.63
12.2972;-274.68;-233.63
12.3167;-272.73;-302.05
12.3363;-270.77;-296.19
12.3558;-268.82;-227.76
12.3754;-266.86;-294.23
12.3949;-264.91;-290.32
12.4145;-262.95;-286.41
12.4340;-261.00;-223.85
12.4536;-259.04;-288.37
12.4731;-257.09;-282.50
12.4927;-255.13;-276.64
12.5122;-253.18;-212.12
12.5318;-251.22;-280.55
12.5513;-249.27;-276.64
12.5709;-247.31;-270.77
12.5904;-245.36;-206.26
12.6100;-243.40;-270.77
12.6295;-241.45;-270.77
12.6491;-239.49;-262.95
12.6686;-237.54;-196.48
12.6882;-235.58;-266.86
12.7077;-233.63;-261.00
12.7273;-231.67;-257.09
12.7468;-229.72;-190.62
12.7664;-227.76;-259.04
12.7859;-225.81;-253.18
12.8055;-223.85;-249.27
12.8250;-221.90;-184.75
12.8446;-219.94;-249.27
12.8641;-217.99;-247.31
12.8837;-216.03;-173.02
12.9032;-214.08;-176.93
12.9228;-212.12;-241.45
12.9423;-210.17;-239.49
12.9619;-208.21;-231.67
12.9814;-206.26;-165.20
13.0010;-204.30;-231.67
13.0205;-202.35;-229.72
13.0401;-200.39;-157.38
13.0596;-198.44;-161.29
13.0792;-196.48;-227.76
13.0987;-194.53;-221.90
13.1183;-192.57;-217.99
13.1378;-190.62;-149.56
13.1574;-188.66;-186.71
13.1769;-186.71;-216.03
13.1965;-184.75;-212.12
13.2160;-182.80;-145.65
13.2356;-180.84;-161.29
13.2551;-178.89;-208.21
13.2747;-176.93;-204.30
13.2942;-174.98;-137.83
13.3138;-173.02;-143.70
13.3333;-171.07;-200.39
13.3529;-169.11;-196.48
13.3724;-167.16;-130.01
13.3920;-165.20;-196.48
13.4115;-163.25;-192.57
13.4311;-161.29;-188.66
13.4506;-159.34;-120.23
13.4702;-157.38;-188.66
13.4897;-155.43;-186.71
13.5093;-153.47;-112.41
13.5288;-151.52;-110.46
13.5484;-149.56;-114.37
13.5679;-147.61;-180.84
13.5875;-145.65;-173.02
13.6070;-143.70;-106.55
13.6266;-141.74;-108.50
13.6461;-139.78;-171.07
13.6657;-137.83;-165.20
13.6852;-135.87;-100.68
13.7048;-133.92;-165.20
13.7243;-131.96;-165.20
13.7439;-130.01;-90.91
13.7634;-128.05;-161.29
13.7830;-126.10;-159.34
13.8025;-124.14;-83.09
13.8221;-122.19;-87.00
13.8416;-120.23;-147.61
13.8612;-118.28;-79.18
13.8807;-116.32;-147.61
13.9003;-114.37;-75.27
13.9198;-112.41;-81.13
13.9394;-110.46;-137.83
13.9589;-108.50;-73.31
13.9785;-106.55;-137.83
13.9980;-104.59;-131.96
14.0176;-102.64;-63.54
14.0371;-100.68;-131.96
14.0567;-98.73;-131.96
14.0762;-96.77;-59.63
14.0958;-94.82;-55.72
14.1153;-92.86;-130.01
14.1349;-90.91;-51.81
14.1544;-88.95;-120.23
14.1740;-87.00;-120.23
14.1935;-85.04;-116.32
14.2131;-83.09;-49.85
14.2326;-81.13;-43.99
14.2522;-79.18;-110.46
14.2717;-77.22;-42.03
14.2913;-75.27;-38.12
14.3108;-73.31;-104.59
14.3304;-71.36;-42.03
14.3499;-69.40;-34.21
14.3695;-67.45;-98.73
14.3890;-65.49;-98.73
14.4086;-63.54;-30.30
14.4281;-61.58;-26.39
14.4477;-59.63;-90.91
14.4672;-57.67;-92.86
14.4868;-55.72;-22.48
14.5063;-53.76;-16.62
14.5259;-51.81;-83.09
14.5454;-49.85;-85.04
14.5650;-47.90;-85.04
14.5845;-45.94;-10.75
14.6041;-43.99;-75.27
14.6236;-42.03;-77.22
14.6432;-40.08;-8.80
14.6627;-38.12;-2.93
14.6823;-36.17;-2.93
14.7018;-34.21;-2.93
14.7214;-32.26;2.93
14.7409;-30.30;-63.54
14.7605;-28.35;4.89
14.7800;-26.39;-59.63
14.7996;-24.44;6.84
14.8191;-22.48;-59.63
14.8387;-20.53;10.75
14.8582;-18.57;10.75
14.8778;-16.62;14.66
14.8973;-14.66;14.66
14.9169;-12.71;18.57
14.9364;-10.75;20.53
14.9560;-8.80;24.44
14.9755;-6.84;26.39
14.9951;-4.89;-42.03
15.0146;-2.93;-40.08
15.0342;-0.98;-36.17
15.0537;0.98;-32.26
15.0733;2.93;-32.26
15.0929;4.89;40.08
15.1124;6.84;-30.30
15.1320;8.80;-24.44
15.1515;10.75;40.08
15.1711;12.71;-24.44
15.1906;14.66;-22.48
15.2102;16.62;-20.53
15.2297;18.57;-16.62
15.2493;20.53;-16.62
15.2688;22.48;-12.71
15.2884;24.44;-12.71
15.3079;26.39;-8.80
15.3275;28.35;-4.89
15.3470;30.30;63.54
15.3666;32.26;61.58
15.3861;34.21;-2.93
15.4057;36.17;0.98
15.4252;38.12;67.45
15.4448;40.08;4.89
15.4643;42.03;73.31
15.4839;43.99;73.31
15.5034;45.94;10.75
15.5230;47.90;81.13
15.5425;49.85;81.13
15.5621;51.81;81.13
15.5816;53.76;16.62
15.6012;55.72;90.91
15.6207;57.67;88.95
15.6403;59.63;43.99
15.6598;61.58;24.44
15.6794;63.54;28.35
15.6989;65.49;96.77
15.7185;67.45;92.86
15.7380;69.40;36.17
15.7576;71.36;38.12
15.7771;73.31;104.59
15.7967;75.27;108.50
15.8162;77.22;106.55
15.8358;79.18;108.50
15.8553;81.13;110.46
15.8749;83.09;112.41
15.8944;85.04;114.37
15.9140;87.00;114.37
15.9335;88.95;118.28
15.9531;90.91;122.19
15.9726;92.86;122.19
15.9922;94.82;126.10
16.0117;96.77;126.10
16.0313;98.73;126.10
16.0508;100.68;61.58
16.0704;102.64;61.58
16.0899;104.59;130.01
16.1095;106.55;135.87
16.1290;108.50;137.83
16.1486;110.46;73.31
16.1681;112.41;73.31
16.1877;114.37;77.22
16.2072;116.32;79.18
16.2268;118.28;79.18
16.2463;120.23;79.18
16.2659;122.19;85.04
16.2854;124.14;85.04
16.3050;126.10;90.91
