=~=~=~=~=~=~=~=~=~=~=~= PuTTY log 2025.04.09 15:50:23 =~=~=~=~=~=~=~=~=~=~=~=
Choisissez la methode :
1 - Chronoamperometrie
2 - Voltammetrie cyclique
Methode selectionnee : Voltammetrie cyclique
Entrez E1 (en Volts) :
Entrez E2 (en Volts) :
Entrez la vitesse de balayage (en V/s) :
Entrez le nombre de cycles :
Parametres enregistres.
E1 = -1.00 V, E2 = 1.00 V, Vitesse = 0.10 V/s
Cycles = 3.00
Entrez le facteur d'affichage (valeur par défaut = 1, valeur utilisée pour les mesures = 4) :
Facteur d'affichage choisi : 4
Entrez 'ok' pour commencer l'expérience.
Debut
Temps (s);tension (mV);courant (uA)
0.0782;1000.00;44.39
0.1564;992.18;44.00
0.2346;984.36;43.61
0.3128;976.54;42.83
0.3910;968.72;41.66
0.4692;960.90;41.27
0.5474;953.08;40.88
0.6256;945.26;40.88
0.7038;937.44;39.71
0.7820;929.62;40.10
0.8602;921.80;38.54
0.9384;913.98;38.93
1.0166;906.16;37.37
1.0948;898.34;37.76
1.1730;890.52;36.98
1.2512;882.70;36.98
1.3294;874.88;36.20
1.4076;867.06;36.59
1.4858;859.24;30.74
1.5640;851.42;35.42
1.6422;843.60;35.42
1.7204;835.78;34.64
1.7986;827.96;34.25
1.8768;820.14;33.86
1.9550;812.32;33.08
2.0332;804.50;33.47
2.1114;796.68;31.91
2.1896;788.86;31.91
2.2678;781.04;32.30
2.3460;773.22;30.35
2.4242;765.40;31.13
2.5024;757.58;30.74
2.5806;749.76;31.52
2.6588;741.94;30.35
2.7370;734.12;28.79
2.8152;726.30;29.96
2.8934;718.48;29.18
2.9716;710.66;25.67
3.0499;702.84;28.40
3.1281;695.02;28.40
3.2063;687.20;27.62
3.2845;679.38;27.62
3.3627;671.56;23.33
3.4409;663.74;23.33
3.5191;655.92;26.84
3.5973;648.10;26.06
3.6755;640.28;26.06
3.7537;632.46;26.06
3.8319;624.64;24.89
3.9101;616.82;25.28
3.9883;609.00;24.89
4.0665;601.18;25.28
4.1447;593.36;24.11
4.2229;585.54;24.11
4.3011;577.72;20.21
4.3793;569.90;19.82
4.4575;562.08;23.33
4.5357;554.26;22.55
4.6139;546.44;22.55
4.6921;538.62;22.55
4.7703;530.80;21.77
4.8485;522.98;17.09
4.9267;515.16;21.77
5.0049;507.34;22.16
5.0831;499.52;19.43
5.1613;491.70;21.38
5.2395;483.88;20.99
5.3177;476.06;20.21
5.3959;468.24;19.82
5.4741;460.42;16.31
5.5523;452.60;19.04
5.6305;444.78;16.70
5.7087;436.96;19.04
5.7869;429.13;15.53
5.8651;421.31;19.43
5.9433;413.49;18.65
6.0215;405.67;15.14
6.0997;397.85;18.65
6.1779;390.03;19.43
6.2561;382.21;18.65
6.3343;374.39;14.75
6.4125;366.57;19.04
6.4907;358.75;17.48
6.5689;350.93;13.97
6.6471;343.11;16.70
6.7253;335.29;14.75
6.8035;327.47;17.87
6.8817;319.65;17.48
6.9599;311.83;17.09
7.0381;304.01;17.48
7.1163;296.19;15.92
7.1945;288.37;13.19
7.2727;280.55;17.48
7.3509;272.73;17.09
7.4291;264.91;16.70
7.5073;257.09;17.48
7.5855;249.27;12.80
7.6637;241.45;15.14
7.7419;233.63;16.31
7.8201;225.81;12.02
7.8983;217.99;16.31
7.9765;210.17;12.41
8.0547;202.35;17.09
8.1329;194.53;11.63
8.2111;186.71;13.97
8.2893;178.89;15.92
8.3675;171.07;12.02
8.4457;163.25;15.53
8.5239;155.43;11.63
8.6021;147.61;12.41
8.6803;139.79;15.14
8.7585;131.97;11.63
8.8367;124.15;14.36
8.9149;116.33;13.58
8.9931;108.51;10.85
9.0714;100.69;16.70
9.1496;92.87;14.36
9.2278;85.05;13.58
9.3060;77.23;11.24
9.3842;69.41;13.58
9.4624;61.59;15.14
9.5406;53.77;10.85
9.6188;45.95;13.97
9.6970;38.13;10.46
9.7752;30.31;14.75
9.8534;22.49;13.97
9.9316;14.67;15.14
10.0098;6.85;13.58
10.0880;-0.97;9.29
10.1662;-8.79;10.46
10.2444;-16.61;10.85
10.3226;-24.43;13.97
10.4008;-32.25;13.97
10.4790;-40.07;11.63
10.5572;-47.89;10.85
10.6354;-55.71;13.58
10.7136;-63.53;13.58
10.7918;-71.35;10.85
10.8700;-79.17;14.36
10.9482;-86.99;13.58
11.0264;-94.81;12.41
11.1046;-102.63;12.80
11.1828;-110.45;10.85
11.2610;-118.27;13.19
11.3392;-126.09;11.24
11.4174;-133.91;11.24
11.4956;-141.74;13.58
11.5738;-149.56;13.58
11.6520;-157.38;11.63
11.7302;-165.20;10.46
11.8084;-173.02;15.14
11.8866;-180.84;13.97
11.9648;-188.66;13.58
12.0430;-196.48;10.07
12.1212;-204.30;11.24
12.1994;-212.12;9.68
12.2776;-219.94;10.07
12.3558;-227.76;13.97
12.4340;-235.58;10.07
12.5122;-243.40;9.68
12.5904;-251.22;9.29
12.6686;-259.04;10.07
12.7468;-266.86;7.73
12.8250;-274.68;8.12
12.9032;-282.50;8.51
12.9814;-290.32;7.73
13.0596;-298.14;5.78
13.1378;-305.96;5.39
13.2160;-313.78;5.00
13.2942;-321.60;6.95
13.3724;-329.42;2.66
13.4506;-337.24;-2.41
13.5288;-345.06;-0.07
13.6070;-352.88;1.88
13.6852;-360.70;0.32
13.7634;-368.52;-1.24
13.8416;-376.34;-3.97
13.9198;-384.16;-8.65
13.9980;-391.98;-8.26
14.0762;-399.80;-14.89
14.1544;-407.62;-18.01
14.2326;-415.44;-21.52
14.3108;-423.26;-22.69
14.3890;-431.08;-29.71
14.4672;-438.90;-30.49
14.5454;-446.72;-38.68
14.6236;-454.54;-40.63
14.7018;-462.36;-42.97
14.7800;-470.18;-51.94
14.8582;-478.00;-56.23
14.9364;-485.82;-65.98
15.0146;-493.64;-73.00
15.0929;-501.46;-77.29
15.1711;-509.28;-89.38
15.2493;-517.10;-95.23
15.3275;-524.92;-105.37
15.4057;-532.74;-117.46
15.4839;-540.56;-129.94
15.5621;-548.38;-133.84
15.6403;-556.20;-144.37
15.7185;-564.02;-150.61
15.7967;-571.84;-168.55
15.8749;-579.66;-177.13
15.9531;-587.48;-184.93
16.0313;-595.30;-188.05
16.1095;-603.12;-198.97
16.1877;-610.94;-198.97
16.2659;-618.76;-198.97
16.3441;-626.58;-198.97
16.4223;-634.40;-198.97
16.5005;-642.22;-198.97
16.5787;-650.04;-198.97
16.6569;-657.86;-198.97
16.7351;-665.68;-198.97
16.8133;-673.50;-198.97
16.8915;-681.32;-198.97
16.9697;-689.14;-198.97
17.0479;-696.96;-198.97
17.1261;-704.79;-198.97
17.2043;-712.61;-198.97
17.2825;-720.43;-198.97
17.3607;-728.25;-198.97
17.4389;-736.07;-198.97
17.5171;-743.89;-198.97
17.5953;-751.71;-197.41
17.6735;-759.53;-197.02
17.7517;-767.35;-196.63
17.8299;-775.17;-195.07
17.9081;-782.99;-192.34
17.9863;-790.81;-191.95
18.0645;-798.63;-188.44
18.1427;-806.45;-187.27
18.2209;-814.27;-183.76
18.2991;-822.09;-182.20
18.3773;-829.91;-177.52
18.4555;-837.73;-176.35
18.5337;-845.55;-174.01
18.6119;-853.37;-170.89
18.6901;-861.19;-166.21
18.7683;-869.01;-167.77
18.8465;-876.83;-162.70
18.9247;-884.65;-163.48
19.0029;-892.47;-158.41
19.0811;-900.29;-157.63
19.1593;-908.11;-157.24
19.2375;-915.93;-154.51
19.3157;-923.75;-152.56
19.3939;-931.57;-151.00
19.4721;-939.39;-147.10
19.5503;-947.21;-145.93
19.6285;-955.03;-142.81
19.7067;-962.85;-143.98
19.7849;-970.67;-143.98
19.8631;-978.49;-142.03
19.9413;-986.31;-140.08
20.0195;-994.13;-140.08
20.0977;-988.26;-136.57
20.1759;-980.44;-131.89
20.2541;-972.62;-128.77
20.3323;-964.80;-126.82
20.4105;-956.98;-124.09
20.4887;-949.16;-120.97
20.5669;-941.34;-119.02
20.6451;-933.52;-117.07
20.7233;-925.70;-113.17
20.8015;-917.88;-112.39
20.8797;-910.06;-111.22
20.9579;-902.24;-108.49
21.0361;-894.42;-106.54
21.1144;-886.60;-105.37
21.1926;-878.78;-103.81
21.2708;-870.96;-102.64
21.3490;-863.14;-100.69
21.4272;-855.32;-98.35
21.5054;-847.50;-96.40
21.5836;-839.68;-95.23
21.6618;-831.86;-92.50
21.7400;-824.04;-91.33
21.8182;-816.22;-88.99
21.8964;-808.40;-87.82
21.9746;-800.58;-84.31
22.0528;-792.76;-83.53
22.1310;-784.94;-80.80
22.2092;-777.12;-78.46
22.2874;-769.30;-75.73
22.3656;-761.48;-73.39
22.4438;-753.66;-70.27
22.5220;-745.84;-64.81
22.6002;-738.02;-64.42
22.6784;-730.20;-59.74
22.7566;-722.38;-57.79
22.8348;-714.56;-54.28
22.9130;-706.74;-49.21
22.9912;-698.92;-45.31
23.0694;-691.10;-42.97
23.1476;-683.28;-37.90
23.2258;-675.46;-33.22
23.3040;-667.64;-30.10
23.3822;-659.82;-28.93
23.4604;-652.00;-21.52
23.5386;-644.18;-21.13
23.6168;-636.36;-12.55
23.6950;-628.54;-14.50
23.7732;-620.72;-11.38
23.8514;-612.90;-6.70
23.9296;-605.08;-4.75
24.0078;-597.26;-1.24
24.0860;-589.44;0.71
24.1642;-581.62;3.83
24.2424;-573.80;5.78
24.3206;-565.98;8.51
24.3988;-558.16;11.24
24.4770;-550.34;12.41
24.5552;-542.52;19.04
24.6334;-534.70;17.48
24.7116;-526.88;18.26
24.7898;-519.06;20.60
24.8680;-511.24;21.38
24.9462;-503.42;20.21
25.0244;-495.60;24.50
25.1026;-487.78;24.50
25.1808;-479.96;25.67
25.2590;-472.14;29.57
25.3372;-464.32;28.01
25.4154;-456.50;27.62
25.4936;-448.68;28.01
25.5718;-440.86;29.18
25.6500;-433.04;29.18
25.7282;-425.22;29.96
25.8064;-417.39;35.81
25.8846;-409.57;33.47
25.9628;-401.75;31.13
26.0410;-393.93;33.08
26.1192;-386.11;35.81
26.1974;-378.29;33.47
26.2756;-370.47;33.86
26.3538;-362.65;38.15
26.4320;-354.83;38.54
26.5102;-347.01;38.93
26.5884;-339.19;35.03
26.6666;-331.37;38.15
26.7448;-323.55;37.76
26.8230;-315.73;42.05
26.9012;-307.91;44.39
26.9794;-300.09;44.00
27.0576;-292.27;43.61
27.1359;-284.45;41.27
27.2141;-276.63;42.83
27.2923;-268.81;42.44
27.3705;-260.99;47.51
27.4487;-253.17;43.61
27.5269;-245.35;45.56
27.6051;-237.53;46.34
27.6833;-229.71;51.80
27.7615;-221.89;52.97
27.8397;-214.07;50.24
27.9179;-206.25;51.80
27.9961;-198.43;52.97
28.0743;-190.61;54.53
28.1525;-182.79;59.99
28.2307;-174.97;61.94
28.3089;-167.15;59.99
28.3871;-159.33;65.45
28.4653;-151.51;63.50
28.5435;-143.69;65.84
28.6217;-135.87;69.35
28.6999;-128.05;75.20
28.7781;-120.23;78.32
28.8563;-112.41;76.76
28.9345;-104.59;83.39
29.0127;-96.77;84.56
29.0909;-88.95;85.73
29.1691;-81.13;92.36
29.2473;-73.31;93.14
29.3255;-65.49;97.43
29.4037;-57.67;100.94
29.4819;-49.85;102.11
29.5601;-42.03;101.33
29.6383;-34.21;102.89
29.7165;-26.39;105.23
29.7947;-18.57;111.08
29.8729;-10.75;108.74
29.9511;-2.93;109.91
30.0293;4.89;114.20
30.1075;12.71;111.08
30.1857;20.53;114.59
30.2639;28.35;114.98
30.3421;36.17;111.47
30.4203;43.99;111.08
30.4985;51.81;108.35
30.5767;59.63;110.69
30.6549;67.45;111.08
30.7331;75.27;105.62
30.8113;83.09;102.89
30.8895;90.91;104.84
30.9677;98.73;103.28
31.0459;106.55;101.72
31.1241;114.37;100.16
31.2023;122.19;97.82
31.2805;130.01;95.09
31.3587;137.83;91.19
31.4369;145.65;90.41
31.5151;153.48;88.07
31.5933;161.30;86.12
31.6715;169.12;85.73
31.7497;176.94;83.78
31.8279;184.76;83.39
31.9061;192.58;81.44
31.9843;200.40;80.66
32.0625;208.22;82.61
32.1407;216.04;78.32
32.2189;223.86;77.54
32.2971;231.68;79.49
32.3753;239.50;80.27
32.4535;247.32;75.98
32.5317;255.14;74.81
32.6099;262.96;73.25
32.6881;270.78;73.25
32.7663;278.60;71.30
32.8445;286.42;70.52
32.9227;294.24;74.03
33.0009;302.06;72.86
33.0792;309.88;70.91
33.1574;317.70;72.47
33.2356;325.52;72.47
33.3138;333.34;72.47
33.3920;341.16;71.69
33.4702;348.98;72.08
33.5484;356.80;71.30
33.6266;364.62;70.13
33.7048;372.44;66.62
33.7830;380.26;67.01
33.8612;388.08;66.23
33.9394;395.90;69.35
34.0176;403.72;69.35
34.0958;411.54;69.35
34.1740;419.36;68.57
34.2522;427.18;68.96
34.3304;435.00;69.35
34.4086;442.82;69.74
34.4868;450.64;67.79
34.5650;458.46;67.79
34.6432;466.28;68.96
34.7214;474.10;68.96
34.7996;481.92;68.96
34.8778;489.74;68.18
34.9560;497.56;68.96
35.0342;505.38;68.57
35.1124;513.20;68.96
35.1906;521.02;68.96
35.2688;528.84;69.35
35.3470;536.66;65.45
35.4252;544.48;68.18
35.5034;552.30;69.35
35.5816;560.12;69.74
35.6598;567.94;69.35
35.7380;575.76;70.13
35.8162;583.58;69.74
35.8944;591.40;66.62
35.9726;599.22;69.74
36.0508;607.04;70.52
36.1290;614.86;70.91
36.2072;622.68;70.52
36.2854;630.50;67.01
36.3636;638.32;67.79
36.4418;646.14;71.30
36.5200;653.96;72.47
36.5982;661.78;71.69
36.6764;669.60;72.08
36.7546;677.42;71.30
36.8328;685.24;71.69
36.9110;693.06;68.18
36.9892;700.88;71.69
37.0674;708.70;71.69
37.1456;716.52;71.69
37.2238;724.35;72.08
37.3020;732.17;72.08
37.3802;739.99;71.69
37.4584;747.81;72.47
37.5366;755.63;72.08
37.6148;763.45;72.86
37.6930;771.27;72.86
37.7712;779.09;73.25
37.8494;786.91;70.91
37.9276;794.73;72.86
38.0058;802.55;73.25
38.0840;810.37;70.91
38.1622;818.19;73.25
38.2404;826.01;74.03
38.3186;833.83;72.86
38.3968;841.65;74.03
38.4750;849.47;74.42
38.5532;857.29;70.52
38.6314;865.11;74.03
38.7096;872.93;74.03
38.7878;880.75;74.42
38.8660;888.57;74.81
38.9442;896.39;74.81
39.0224;904.21;75.59
39.1007;912.03;72.08
39.1789;919.85;75.59
39.2571;927.67;75.59
39.3353;935.49;75.98
39.4135;943.31;75.98
39.4917;951.13;76.76
39.5699;958.95;76.76
39.6481;966.77;77.54
39.7263;974.59;77.54
39.8045;982.41;77.93
39.8827;990.23;78.71
39.9609;998.05;78.71
40.0391;1005.87;79.10
40.1173;1000.00;77.93
40.1955;992.18;74.81
40.2737;984.36;72.86
40.3519;976.54;70.52
40.4301;968.72;68.96
40.5083;960.90;67.40
40.5865;953.08;64.67
40.6647;945.26;64.67
40.7429;937.44;63.11
40.8211;929.62;61.94
40.8993;921.80;59.21
40.9775;913.98;60.38
41.0557;906.16;58.82
41.1339;898.34;58.04
41.2121;890.52;56.87
41.2903;882.70;56.09
41.3685;874.88;54.92
41.4467;867.06;50.63
41.5249;859.24;53.75
41.6031;851.42;52.97
41.6813;843.60;52.58
41.7595;835.78;51.80
41.8377;827.96;51.02
41.9159;820.14;50.63
41.9941;812.32;46.34
42.0723;804.50;49.07
42.1505;796.68;48.68
42.2287;788.86;47.90
42.3069;781.04;47.51
42.3851;773.22;47.51
42.4633;765.40;45.95
42.5415;757.58;45.95
42.6197;749.76;44.78
42.6979;741.94;43.61
42.7761;734.12;44.00
42.8543;726.30;43.22
42.9325;718.48;42.05
43.0107;710.66;38.15
43.0889;702.84;42.05
43.1671;695.02;38.15
43.2453;687.20;41.66
43.3235;679.38;40.88
43.4017;671.56;40.10
43.4799;663.74;40.49
43.5581;655.92;39.71
43.6363;648.10;39.32
43.7145;640.28;39.32
43.7927;632.46;38.15
43.8709;624.64;38.54
43.9491;616.82;37.76
44.0273;609.00;37.37
44.1055;601.18;37.37
44.1837;593.36;36.59
44.2619;585.54;36.59
44.3401;577.72;35.81
44.4183;569.90;35.81
44.4965;562.08;35.03
44.5747;554.26;31.91
44.6529;546.44;35.03
44.7311;538.62;34.64
44.8093;530.80;34.64
44.8875;522.98;33.47
44.9657;515.16;30.74
45.0439;507.34;33.08
45.1222;499.52;32.69
45.2004;491.70;28.79
45.2786;483.88;28.40
45.3568;476.06;28.40
45.4350;468.24;28.01
45.5132;460.42;27.62
45.5914;452.60;28.01
45.6696;444.78;30.35
45.7478;436.96;31.13
45.8260;429.13;26.45
45.9042;421.31;29.96
45.9824;413.49;29.57
46.0606;405.67;29.57
46.1388;397.85;29.18
46.2170;390.03;28.79
46.2952;382.21;28.40
46.3734;374.39;29.57
46.4516;366.57;28.40
46.5298;358.75;28.40
46.6080;350.93;28.79
46.6862;343.11;28.40
46.7644;335.29;28.40
46.8426;327.47;27.23
46.9208;319.65;27.23
46.9990;311.83;27.62
47.0772;304.01;27.23
47.1554;296.19;23.33
47.2336;288.37;23.33
47.3118;280.55;26.84
47.3900;272.73;26.84
47.4682;264.91;26.45
47.5464;257.09;26.84
47.6246;249.27;26.06
47.7028;241.45;26.84
47.7810;233.63;25.67
47.8592;225.81;25.67
47.9374;217.99;25.67
48.0156;210.17;22.16
48.0938;202.35;25.28
48.1720;194.53;25.67
48.2502;186.71;27.23
48.3284;178.89;19.82
48.4066;171.07;23.72
48.4848;163.25;20.60
48.5630;155.43;20.21
48.6412;147.61;21.77
48.7194;139.79;25.67
48.7976;131.97;21.77
48.8758;124.15;19.82
48.9540;116.33;25.67
49.0322;108.51;20.21
49.1104;100.69;24.50
49.1886;92.87;19.82
49.2668;85.05;24.11
49.3450;77.23;24.11
49.4232;69.41;23.33
49.5014;61.59;19.04
49.5796;53.77;23.33
49.6578;45.95;24.11
49.7360;38.13;22.55
49.8142;30.31;19.04
49.8924;22.49;22.16
49.9706;14.67;17.87
50.0488;6.85;18.26
50.1270;-0.97;22.94
50.2052;-8.79;22.16
50.2834;-16.61;22.55
50.3616;-24.43;21.38
50.4398;-32.25;22.16
50.5180;-40.07;20.60
50.5962;-47.89;17.09
50.6744;-55.71;17.87
50.7526;-63.53;23.33
50.8308;-71.35;20.60
50.9090;-79.17;16.31
50.9872;-86.99;17.09
51.0654;-94.81;19.43
51.1436;-102.63;16.31
51.2219;-110.45;17.09
51.3001;-118.27;15.92
51.3783;-126.09;19.43
51.4565;-133.91;16.31
51.5347;-141.74;15.53
51.6129;-149.56;20.60
51.6911;-157.38;15.53
51.7693;-165.20;19.43
51.8475;-173.02;16.70
51.9257;-180.84;18.26
52.0039;-188.66;15.92
52.0821;-196.48;15.14
52.1603;-204.30;19.04
52.2385;-212.12;15.53
52.3167;-219.94;15.14
52.3949;-227.76;20.21
52.4731;-235.58;17.48
52.5513;-243.40;14.75
52.6295;-251.22;15.53
52.7077;-259.04;19.82
52.7859;-266.86;18.26
52.8641;-274.68;13.58
52.9423;-282.50;13.97
53.0205;-290.32;17.48
53.0987;-298.14;15.92
53.1769;-305.96;13.19
53.2551;-313.78;16.70
53.3333;-321.60;14.36
53.4115;-329.42;10.46
53.4897;-337.24;10.46
53.5679;-345.06;10.46
53.6461;-352.88;7.34
53.7243;-360.70;7.73
53.8025;-368.52;5.39
53.8807;-376.34;7.34
53.9589;-384.16;6.17
54.0371;-391.98;5.00
54.1153;-399.80;-2.02
54.1935;-407.62;-3.58
54.2717;-415.44;-6.31
54.3499;-423.26;-9.04
54.4281;-431.08;-13.33
54.5063;-438.90;-15.28
54.5845;-446.72;-23.47
54.6627;-454.54;-21.91
54.7409;-462.36;-32.05
54.8191;-470.18;-37.90
54.8973;-478.00;-42.97
54.9755;-485.82;-53.11
55.0537;-493.64;-56.23
55.1319;-501.46;-65.98
55.2101;-509.28;-71.05
55.2883;-517.10;-83.92
55.3665;-524.92;-90.16
55.4447;-532.74;-99.13
55.5229;-540.56;-111.22
55.6011;-548.38;-121.36
55.6793;-556.20;-125.65
55.7575;-564.02;-133.06
55.8357;-571.84;-149.05
55.9139;-579.66;-156.46
55.9921;-587.48;-166.21
56.0703;-595.30;-173.62
56.1485;-603.12;-179.47
56.2267;-610.94;-181.42
56.3049;-618.76;-190.78
56.3831;-626.58;-194.68
56.4613;-634.40;-198.97
56.5395;-642.22;-198.97
56.6177;-650.04;-198.97
56.6959;-657.86;-198.97
56.7741;-665.68;-198.97
56.8523;-673.50;-198.97
56.9305;-681.32;-198.97
57.0087;-689.14;-198.97
57.0869;-696.96;-198.97
57.1651;-704.79;-196.24
57.2434;-712.61;-194.68
57.3216;-720.43;-189.61
57.3998;-728.25;-192.34
57.4780;-736.07;-191.17
57.5562;-743.89;-188.05
57.6344;-751.71;-190.39
57.7126;-759.53;-189.22
57.7908;-767.35;-188.05
57.8690;-775.17;-186.49
57.9472;-782.99;-184.15
58.0254;-790.81;-184.54
58.1036;-798.63;-178.30
58.1818;-806.45;-179.47
58.2600;-814.27;-175.96
58.3382;-822.09;-177.13
58.4164;-829.91;-167.38
58.4946;-837.73;-169.72
58.5728;-845.55;-161.14
58.6510;-853.37;-164.26
58.7292;-861.19;-161.92
58.8074;-869.01;-159.58
58.8856;-876.83;-157.63
58.9638;-884.65;-156.85
59.0420;-892.47;-154.51
59.1202;-900.29;-151.39
59.1984;-908.11;-147.10
59.2766;-915.93;-146.71
59.3548;-923.75;-145.93
59.4330;-931.57;-144.76
59.5112;-939.39;-143.20
59.5894;-947.21;-141.25
59.6676;-955.03;-138.52
59.7458;-962.85;-138.52
59.8240;-970.67;-136.96
59.9022;-978.49;-135.40
59.9804;-986.31;-133.45
60.0586;-994.13;-131.50
60.1368;-988.26;-129.55
60.2150;-980.44;-126.04
60.2932;-972.62;-122.14
60.3714;-964.80;-120.19
60.4496;-956.98;-117.85
60.5278;-949.16;-116.29
60.6060;-941.34;-113.95
60.6842;-933.52;-110.44
60.7624;-925.70;-107.71
60.8406;-917.88;-108.10
60.9188;-910.06;-105.76
60.9970;-902.24;-102.64
61.0752;-894.42;-101.86
61.1534;-886.60;-100.30
61.2316;-878.78;-96.79
61.3098;-870.96;-95.62
61.3880;-863.14;-94.06
61.4662;-855.32;-92.50
61.5444;-847.50;-89.77
61.6226;-839.68;-88.21
61.7008;-831.86;-87.04
61.7790;-824.04;-83.92
61.8572;-816.22;-80.02
61.9354;-808.40;-81.19
62.0136;-800.58;-78.07
62.0918;-792.76;-76.90
62.1700;-784.94;-73.39
62.2482;-777.12;-71.83
62.3264;-769.30;-66.76
62.4046;-761.48;-64.81
62.4828;-753.66;-61.69
62.5610;-745.84;-54.67
62.6392;-738.02;-55.84
62.7174;-730.20;-52.33
62.7956;-722.38;-50.38
62.8738;-714.56;-46.87
62.9520;-706.74;-44.53
63.0302;-698.92;-40.24
63.1084;-691.10;-33.22
63.1866;-683.28;-32.44
63.2649;-675.46;-29.71
63.3431;-667.64;-25.81
63.4213;-659.82;-21.13
63.4995;-652.00;-18.79
63.5777;-644.18;-15.67
63.6559;-636.36;-11.38
63.7341;-628.54;-9.82
63.8123;-620.72;-5.92
63.8905;-612.90;-2.80
63.9687;-605.08;-0.07
64.0469;-597.26;3.05
64.1251;-589.44;7.73
64.2033;-581.62;10.07
64.2815;-573.80;11.63
64.3597;-565.98;18.26
64.4380;-558.16;13.19
64.5162;-550.34;21.77
64.5944;-542.52;18.26
64.6726;-534.70;22.55
64.7508;-526.88;22.55
64.8290;-519.06;27.23
64.9073;-511.24;25.67
64.9855;-503.42;26.45
65.0637;-495.60;24.11
65.1419;-487.78;25.67
65.2201;-479.96;27.23
65.2983;-472.14;30.35
65.3766;-464.32;28.01
65.4548;-456.50;28.79
65.5330;-448.68;32.30
65.6112;-440.86;33.86
65.6894;-433.04;34.25
65.7676;-425.22;31.13
65.8459;-417.39;31.52
65.9241;-409.57;31.91
66.0023;-401.75;32.69
66.0805;-393.93;34.64
66.1587;-386.11;36.98
66.2369;-378.29;36.98
66.3152;-370.47;34.25
66.3934;-362.65;35.42
66.4716;-354.83;36.98
66.5498;-347.01;36.59
66.6280;-339.19;37.37
66.7062;-331.37;42.05
66.7845;-323.55;43.22
66.8627;-315.73;40.10
66.9409;-307.91;39.32
67.0191;-300.09;44.00
67.0973;-292.27;45.56
67.1755;-284.45;42.05
67.2538;-276.63;43.22
67.3320;-268.81;44.00
67.4102;-260.99;46.73
67.4884;-253.17;49.07
67.5666;-245.35;46.34
67.6448;-237.53;47.51
67.7231;-229.71;48.29
67.8013;-221.89;49.46
67.8795;-214.07;54.92
67.9577;-206.25;51.80
68.0359;-198.43;54.53
68.1141;-190.61;53.75
68.1924;-182.79;60.38
68.2706;-174.97;61.55
68.3488;-167.15;60.38
68.4270;-159.33;63.11
68.5052;-151.51;66.62
68.5834;-143.69;69.74
68.6617;-135.87;68.57
68.7399;-128.05;70.52
68.8181;-120.23;71.69
68.8963;-112.41;78.32
68.9745;-104.59;81.83
69.0527;-96.77;79.88
69.1310;-88.95;83.00
69.2092;-81.13;90.02
69.2874;-73.31;91.58
69.3656;-65.49;94.70
69.4438;-57.67;93.92
69.5220;-49.85;97.43
69.6003;-42.03;98.99
69.6785;-34.21;104.06
