=~=~=~=~=~=~=~=~=~=~=~= PuTTY log 2025.04.09 15:36:02 =~=~=~=~=~=~=~=~=~=~=~=
Choisissez la methode :
1 - Chronoamperometrie
2 - Voltammetrie cyclique
Methode selectionnee : Voltammetrie cyclique
Entrez E1 (en Volts) :
Entrez E2 (en Volts) :
Entrez la vitesse de balayage (en V/s) :
Entrez le nombre de cycles :
Parametres enregistres.
E1 = -1.00 V, E2 = 1.00 V, Vitesse = 0.10 V/s
Cycles = 3.00
Entrez le facteur d'affichage (valeur par défaut = 1, valeur utilisée pour les mesures = 4) :
Facteur d'affichage choisi : 4
Entrez 'ok' pour commencer l'expérience.
Debut
Temps (s) tension (mV) courant (uA)
0.0782;1000.00;83.78
0.1564;992.18;81.83
0.2346;984.36;77.93
0.3128;976.54;77.15
0.3910;968.72;76.37
0.4692;960.90;75.20
0.5474;953.08;72.47
0.6256;945.26;72.86
0.7038;937.44;71.30
0.7820;929.62;70.13
0.8602;921.80;70.52
0.9384;913.98;67.79
1.0166;906.16;68.18
1.0948;898.34;67.01
1.1730;890.52;65.45
1.2512;882.70;65.06
1.3294;874.88;64.67
1.4076;867.06;63.89
1.4858;859.24;61.94
1.5640;851.42;63.89
1.6422;843.60;61.16
1.7204;835.78;58.43
1.7986;827.96;59.60
1.8768;820.14;58.43
1.9550;812.32;57.65
2.0332;804.50;55.31
2.1114;796.68;50.24
2.1896;788.86;55.31
2.2678;781.04;53.36
2.3460;773.22;51.41
2.4242;765.40;52.58
2.5024;757.58;51.41
2.5806;749.76;50.63
2.6588;741.94;44.78
2.7370;734.12;49.07
2.8152;726.30;48.29
2.8934;718.48;46.34
2.9716;710.66;45.56
3.0499;702.84;44.78
3.1281;695.02;39.32
3.2063;687.20;37.37
3.2845;679.38;42.05
3.3627;671.56;41.27
3.4409;663.74;40.49
3.5191;655.92;39.71
3.5973;648.10;38.93
3.6755;640.28;33.47
3.7537;632.46;31.13
3.8319;624.64;35.81
3.9101;616.82;34.64
3.9883;609.00;33.08
4.0665;601.18;32.30
4.1447;593.36;30.35
4.2229;585.54;28.40
4.3011;577.72;25.28
4.3793;569.90;24.50
4.4575;562.08;21.38
4.5357;554.26;14.36
4.6139;546.44;18.26
4.6921;538.62;14.36
4.7703;530.80;12.41
4.8485;522.98;6.56
4.9267;515.16;7.34
5.0049;507.34;1.10
5.0831;499.52;1.88
5.1613;491.70;0.32
5.2395;483.88;-1.24
5.3177;476.06;-3.97
5.3959;468.24;-5.14
5.4741;460.42;-6.70
5.5523;452.60;-6.70
5.6305;444.78;-8.26
5.7087;436.96;-14.50
5.7869;429.13;-10.21
5.8651;421.31;-10.99
5.9433;413.49;-11.38
6.0215;405.67;-11.38
6.0997;397.85;-13.72
6.1779;390.03;-21.52
6.2561;382.21;-21.52
6.3343;374.39;-23.47
6.4125;366.57;-20.35
6.4907;358.75;-22.69
6.5689;350.93;-23.86
6.6471;343.11;-32.05
6.7253;335.29;-30.49
6.8035;327.47;-33.61
6.8817;319.65;-35.17
6.9599;311.83;-38.68
7.0381;304.01;-48.43
7.1163;296.19;-52.72
7.1945;288.37;-51.16
7.2727;280.55;-55.06
7.3509;272.73;-63.25
7.4291;264.91;-69.88
7.5073;257.09;-76.51
7.5855;249.27;-90.16
7.6637;241.45;-92.50
7.7419;233.63;-101.86
7.8201;225.81;-115.51
7.8983;217.99;-123.70
7.9765;210.17;-135.01
8.0547;202.35;-142.81
8.1329;194.53;-164.26
8.2111;186.71;-172.84
8.2893;178.89;-177.91
8.3675;171.07;-187.66
8.4457;163.25;-197.41
8.5239;155.43;-196.63
8.6021;147.61;-198.97
8.6803;139.79;-198.97
8.7585;131.97;-198.97
8.8367;124.15;-193.12
8.9149;116.33;-194.68
8.9931;108.51;-185.71
9.0714;100.69;-179.47
9.1496;92.87;-179.86
9.2278;85.05;-169.72
9.3060;77.23;-165.82
9.3842;69.41;-162.31
9.4624;61.59;-162.70
9.5406;53.77;-150.61
9.6188;45.95;-150.22
9.6970;38.13;-147.49
9.7752;30.31;-142.81
9.8534;22.49;-149.05
9.9316;14.67;-139.30
10.0098;6.85;-141.64
10.0880;-0.97;-140.86
10.1662;-8.79;-136.96
10.2444;-16.61;-129.94
10.3226;-24.43;-133.84
10.4008;-32.25;-126.43
10.4790;-40.07;-124.09
10.5572;-47.89;-127.21
10.6354;-55.71;-126.43
10.7136;-63.53;-120.19
10.7918;-71.35;-120.58
10.8700;-79.17;-121.75
10.9482;-86.99;-115.51
11.0264;-94.81;-119.02
11.1046;-102.63;-112.00
11.1828;-110.45;-114.73
11.2610;-118.27;-110.05
11.3392;-126.09;-112.78
11.4174;-133.91;-112.78
11.4956;-141.74;-106.15
11.5738;-149.56;-104.98
11.6520;-157.38;-103.42
11.7302;-165.20;-105.76
11.8084;-173.02;-105.37
11.8866;-180.84;-98.74
11.9648;-188.66;-103.42
12.0430;-196.48;-101.08
12.1212;-204.30;-92.11
12.1994;-212.12;-96.40
12.2776;-219.94;-91.33
12.3558;-227.76;-96.01
12.4340;-235.58;-93.28
12.5122;-243.40;-86.65
12.5904;-251.22;-92.89
12.6686;-259.04;-91.33
12.7468;-266.86;-85.09
12.8250;-274.68;-88.60
12.9032;-282.50;-87.43
12.9814;-290.32;-81.19
13.0596;-298.14;-87.04
13.1378;-305.96;-80.02
13.2160;-313.78;-85.48
13.2942;-321.60;-78.07
13.3724;-329.42;-78.07
13.4506;-337.24;-76.90
13.5288;-345.06;-83.14
13.6070;-352.88;-77.29
13.6852;-360.70;-80.41
13.7634;-368.52;-75.34
13.8416;-376.34;-83.53
13.9198;-384.16;-81.19
13.9980;-391.98;-72.61
14.0762;-399.80;-82.36
14.1544;-407.62;-82.75
14.2326;-415.44;-78.85
14.3108;-423.26;-75.34
14.3890;-431.08;-79.63
14.4672;-438.90;-76.12
14.5454;-446.72;-83.53
14.6236;-454.54;-79.63
14.7018;-462.36;-81.58
14.7800;-470.18;-79.63
14.8582;-478.00;-86.65
14.9364;-485.82;-86.65
15.0146;-493.64;-87.82
15.0929;-501.46;-89.77
15.1711;-509.28;-93.67
15.2493;-517.10;-89.77
15.3275;-524.92;-98.74
15.4057;-532.74;-97.57
15.4839;-540.56;-103.81
15.5621;-548.38;-108.10
15.6403;-556.20;-113.95
15.7185;-564.02;-117.07
15.7967;-571.84;-118.24
15.8749;-579.66;-119.02
15.9531;-587.48;-125.26
16.0313;-595.30;-118.63
16.1095;-603.12;-126.82
16.1877;-610.94;-131.50
16.2659;-618.76;-133.45
16.3441;-626.58;-126.82
16.4223;-634.40;-130.33
16.5005;-642.22;-134.23
16.5787;-650.04;-128.77
16.6569;-657.86;-127.60
16.7351;-665.68;-125.26
16.8133;-673.50;-121.75
16.8915;-681.32;-122.92
16.9697;-689.14;-120.19
17.0479;-696.96;-119.02
17.1261;-704.79;-116.68
17.2043;-712.61;-115.90
17.2825;-720.43;-113.95
17.3607;-728.25;-112.78
17.4389;-736.07;-104.98
17.5171;-743.89;-110.05
17.5953;-751.71;-108.49
17.6735;-759.53;-108.49
17.7517;-767.35;-104.98
17.8299;-775.17;-103.03
17.9081;-782.99;-104.59
17.9863;-790.81;-102.64
18.0645;-798.63;-100.69
18.1427;-806.45;-94.06
18.2209;-814.27;-99.91
18.2991;-822.09;-99.91
18.3773;-829.91;-98.74
18.4555;-837.73;-97.96
18.5337;-845.55;-101.08
18.6119;-853.37;-98.35
18.6901;-861.19;-98.35
18.7683;-869.01;-101.47
18.8465;-876.83;-102.25
18.9247;-884.65;-101.86
19.0029;-892.47;-103.42
19.0811;-900.29;-105.76
19.1593;-908.11;-106.54
19.2375;-915.93;-108.88
19.3157;-923.75;-106.93
19.3939;-931.57;-111.22
19.4721;-939.39;-110.44
19.5503;-947.21;-112.39
19.6285;-955.03;-115.12
19.7067;-962.85;-114.73
19.7849;-970.67;-114.73
19.8631;-978.49;-116.68
19.9413;-986.31;-110.44
20.0195;-994.13;-122.92
20.0977;-988.26;-112.00
20.1759;-980.44;-99.91
20.2541;-972.62;-94.84
20.3323;-964.80;-84.70
20.4105;-956.98;-84.31
20.4887;-949.16;-80.80
20.5669;-941.34;-74.95
20.6451;-933.52;-71.83
20.7233;-925.70;-68.71
20.8015;-917.88;-60.91
20.8797;-910.06;-57.79
20.9579;-902.24;-57.01
21.0361;-894.42;-53.89
21.1144;-886.60;-46.48
21.1926;-878.78;-48.82
21.2708;-870.96;-46.09
21.3490;-863.14;-35.95
21.4272;-855.32;-41.41
21.5054;-847.50;-37.90
21.5836;-839.68;-35.95
21.6618;-831.86;-33.61
21.7400;-824.04;-31.27
21.8182;-816.22;-29.32
21.8964;-808.40;-26.20
21.9746;-800.58;-26.98
22.0528;-792.76;-25.81
22.1310;-784.94;-25.81
22.2092;-777.12;-24.25
22.2874;-769.30;-20.74
22.3656;-761.48;-21.13
22.4438;-753.66;-19.18
22.5220;-745.84;-16.84
22.6002;-738.02;-10.60
22.6784;-730.20;-15.67
22.7566;-722.38;-15.67
22.8348;-714.56;-12.55
22.9130;-706.74;-12.16
22.9912;-698.92;-10.60
23.0694;-691.10;-9.43
23.1476;-683.28;-5.14
23.2258;-675.46;-1.63
23.3040;-667.64;-4.75
23.3822;-659.82;-3.58
23.4604;-652.00;0.71
23.5386;-644.18;0.32
23.6168;-636.36;2.66
23.6950;-628.54;5.00
23.7732;-620.72;13.97
23.8514;-612.90;13.19
23.9296;-605.08;15.14
24.0078;-597.26;18.26
24.0860;-589.44;28.01
24.1642;-581.62;24.89
24.2424;-573.80;27.62
24.3206;-565.98;34.25
24.3988;-558.16;37.76
24.4770;-550.34;37.76
24.5552;-542.52;49.85
24.6334;-534.70;45.56
24.7116;-526.88;49.85
24.7898;-519.06;61.16
24.8680;-511.24;56.09
24.9462;-503.42;58.04
25.0244;-495.60;59.60
25.1026;-487.78;62.33
25.1808;-479.96;63.11
25.2590;-472.14;69.35
25.3372;-464.32;64.28
25.4154;-456.50;63.50
25.4936;-448.68;61.94
25.5718;-440.86;61.94
25.6500;-433.04;63.11
25.7282;-425.22;66.23
25.8064;-417.39;57.26
25.8846;-409.57;57.26
25.9628;-401.75;59.99
26.0410;-393.93;53.36
26.1192;-386.11;49.46
26.1974;-378.29;55.70
26.2756;-370.47;47.12
26.3538;-362.65;51.80
26.4320;-354.83;49.85
26.5102;-347.01;40.88
26.5884;-339.19;42.05
26.6666;-331.37;40.88
26.7448;-323.55;42.83
26.8230;-315.73;36.59
26.9012;-307.91;41.27
26.9794;-300.09;36.59
27.0576;-292.27;35.81
27.1359;-284.45;31.91
27.2141;-276.63;32.69
27.2923;-268.81;30.74
27.3705;-260.99;33.86
27.4487;-253.17;31.91
27.5269;-245.35;29.57
27.6051;-237.53;29.57
27.6833;-229.71;33.47
27.7615;-221.89;28.79
27.8397;-214.07;27.23
27.9179;-206.25;30.35
27.9961;-198.43;30.35
28.0743;-190.61;26.84
28.1525;-182.79;22.94
28.2307;-174.97;25.67
28.3089;-167.15;29.57
28.3871;-159.33;27.62
28.4653;-151.51;24.11
28.5435;-143.69;24.50
28.6217;-135.87;27.62
28.6999;-128.05;28.40
28.7781;-120.23;28.01
28.8563;-112.41;29.18
28.9345;-104.59;23.72
29.0127;-96.77;28.01
29.0909;-88.95;29.18
29.1691;-81.13;24.89
29.2473;-73.31;25.28
29.3255;-65.49;29.57
29.4037;-57.67;30.35
29.4819;-49.85;29.57
29.5601;-42.03;26.06
29.6383;-34.21;26.84
29.7165;-26.39;27.62
29.7947;-18.57;33.08
29.8729;-10.75;26.84
29.9511;-2.93;28.79
30.0293;4.89;28.79
30.1075;12.71;31.52
30.1857;20.53;28.01
30.2639;28.35;33.86
30.3421;36.17;33.08
30.4203;43.99;28.40
30.4985;51.81;33.08
30.5767;59.63;34.25
30.6549;67.45;28.79
30.7331;75.27;34.64
30.8113;83.09;33.08
30.8895;90.91;30.35
30.9677;98.73;34.25
31.0459;106.55;35.42
31.1241;114.37;30.35
31.2023;122.19;30.74
31.2805;130.01;35.81
31.3587;137.83;33.86
31.4369;145.65;32.69
31.5151;153.48;32.30
31.5933;161.30;35.03
31.6715;169.12;33.08
31.7497;176.94;34.64
31.8279;184.76;36.20
31.9061;192.58;40.49
31.9843;200.40;41.27
32.0625;208.22;38.15
32.1407;216.04;39.32
32.2189;223.86;43.61
32.2971;231.68;40.49
32.3753;239.50;46.34
32.4535;247.32;45.17
32.5317;255.14;46.73
32.6099;262.96;44.78
32.6881;270.78;49.07
32.7663;278.60;49.85
32.8445;286.42;51.80
32.9227;294.24;52.58
33.0009;302.06;54.92
33.0792;309.88;54.14
33.1574;317.70;52.19
33.2356;325.52;53.75
33.3138;333.34;58.43
33.3920;341.16;58.82
33.4702;348.98;59.60
33.5484;356.80;60.77
33.6266;364.62;59.21
33.7048;372.44;63.11
33.7830;380.26;64.67
33.8612;388.08;65.06
33.9394;395.90;64.67
34.0176;403.72;68.57
34.0958;411.54;70.52
34.1740;419.36;67.01
34.2522;427.18;74.03
34.3304;435.00;73.64
34.4086;442.82;75.20
34.4868;450.64;77.15
34.5650;458.46;74.03
34.6432;466.28;74.81
34.7214;474.10;80.66
34.7996;481.92;83.39
34.8778;489.74;84.17
34.9560;497.56;85.73
35.0342;505.38;88.46
35.1124;513.20;84.17
35.1906;521.02;87.29
35.2688;528.84;92.75
35.3470;536.66;96.26
35.4252;544.48;97.82
35.5034;552.30;95.09
35.5816;560.12;95.48
35.6598;567.94;102.11
35.7380;575.76;99.38
35.8162;583.58;100.94
35.8944;591.40;106.40
35.9726;599.22;109.13
36.0508;607.04;110.30
36.1290;614.86;105.62
36.2072;622.68;111.08
36.2854;630.50;111.47
36.3636;638.32;108.74
36.4418;646.14;114.20
36.5200;653.96;113.81
36.5982;661.78;115.37
36.6764;669.60;116.15
36.7546;677.42;116.93
36.8328;685.24;117.32
36.9110;693.06;113.42
36.9892;700.88;119.27
37.0674;708.70;113.42
37.1456;716.52;118.88
37.2238;724.35;119.27
37.3020;732.17;119.66
37.3802;739.99;120.83
37.4584;747.81;119.27
37.5366;755.63;115.37
37.6148;763.45;120.44
37.6930;771.27;116.93
37.7712;779.09;120.83
37.8494;786.91;122.39
37.9276;794.73;123.17
38.0058;802.55;123.56
38.0840;810.37;125.51
38.1622;818.19;127.46
38.2404;826.01;127.07
38.3186;833.83;128.63
38.3968;841.65;130.19
38.4750;849.47;132.14
38.5532;857.29;133.31
38.6314;865.11;136.43
38.7096;872.93;137.60
38.7878;880.75;140.72
38.8660;888.57;143.45
38.9442;896.39;145.01
39.0224;904.21;144.62
39.1007;912.03;153.59
39.1789;919.85;158.27
39.2571;927.67;162.95
39.3353;935.49;168.41
39.4135;943.31;172.70
39.4917;951.13;177.38
39.5699;958.95;180.11
39.6481;966.77;182.84
39.7263;974.59;184.79
39.8045;982.41;186.35
39.8827;990.23;188.69
39.9609;998.05;188.69
40.0391;1005.87;191.03
40.1173;1000.00;185.57
40.1955;992.18;172.70
40.2737;984.36;162.17
40.3519;976.54;153.98
40.4301;968.72;146.18
40.5083;960.90;139.55
40.5865;953.08;132.92
40.6647;945.26;127.46
40.7429;937.44;122.00
40.8211;929.62;116.93
40.8993;921.80;111.86
40.9775;913.98;108.35
41.0557;906.16;99.38
41.1339;898.34;100.16
41.2121;890.52;96.65
41.2903;882.70;93.53
41.3685;874.88;89.24
41.4467;867.06;86.90
41.5249;859.24;84.56
41.6031;851.42;81.44
41.6813;843.60;79.10
41.7595;835.78;77.93
41.8377;827.96;75.59
41.9159;820.14;73.64
41.9941;812.32;71.30
42.0723;804.50;69.35
42.1505;796.68;68.96
42.2287;788.86;67.01
42.3069;781.04;65.45
42.3851;773.22;64.28
42.4633;765.40;62.72
42.5415;757.58;60.77
42.6197;749.76;60.38
42.6979;741.94;59.21
42.7761;734.12;53.75
42.8543;726.30;52.19
42.9325;718.48;55.70
43.0107;710.66;54.53
43.0889;702.84;53.75
43.1671;695.02;52.19
43.2453;687.20;50.63
43.3235;679.38;51.41
43.4017;671.56;48.68
43.4799;663.74;44.78
43.5581;655.92;46.73
43.6363;648.10;44.00
43.7145;640.28;38.93
43.7927;632.46;40.49
43.8709;624.64;40.49
43.9491;616.82;40.10
44.0273;609.00;36.98
44.1055;601.18;36.20
44.1837;593.36;35.42
44.2619;585.54;33.08
44.3401;577.72;31.13
44.4183;569.90;26.06
44.4965;562.08;24.11
44.5747;554.26;26.06
44.6529;546.44;24.11
44.7311;538.62;23.33
44.8093;530.80;16.70
44.8875;522.98;19.04
44.9657;515.16;17.48
45.0439;507.34;14.36
45.1222;499.52;8.51
45.2004;491.70;11.24
45.2786;483.88;8.12
45.3568;476.06;7.34
45.4350;468.24;5.39
45.5132;460.42;1.88
45.5914;452.60;-2.41
45.6696;444.78;-1.24
45.7478;436.96;-8.26
45.8260;429.13;-3.58
45.9042;421.31;-4.75
45.9824;413.49;-5.53
46.0606;405.67;-7.48
46.1388;397.85;-9.82
46.2170;390.03;-14.11
46.2952;382.21;-10.21
46.3734;374.39;-9.04
46.4516;366.57;-14.50
46.5298;358.75;-11.38
46.6080;350.93;-12.16
46.6862;343.11;-16.45
46.7644;335.29;-9.82
46.8426;327.47;-12.16
46.9208;319.65;-15.28
46.9990;311.83;-11.77
47.0772;304.01;-11.38
47.1554;296.19;-10.21
47.2336;288.37;-12.55
47.3118;280.55;-11.38
47.3900;272.73;-5.92
47.4682;264.91;-6.70
47.5464;257.09;-5.53
47.6246;249.27;-10.99
47.7028;241.45;-5.53
47.7810;233.63;-9.04
47.8592;225.81;-9.43
47.9374;217.99;-10.99
48.0156;210.17;-7.48
48.0938;202.35;-7.09
48.1720;194.53;-8.65
48.2502;186.71;-12.55
48.3284;178.89;-9.43
48.4066;171.07;-13.33
48.4848;163.25;-9.43
48.5630;155.43;-9.82
48.6412;147.61;-10.21
48.7194;139.79;-12.94
48.7976;131.97;-14.50
48.8758;124.15;-12.94
48.9540;116.33;-10.60
49.0322;108.51;-9.82
49.1104;100.69;-15.28
49.1886;92.87;-9.43
49.2668;85.05;-9.82
49.3450;77.23;-13.72
49.4232;69.41;-7.09
49.5014;61.59;-12.55
49.5796;53.77;-12.16
49.6578;45.95;-11.38
49.7360;38.13;-9.43
49.8142;30.31;-9.82
49.8924;22.49;-13.33
49.9706;14.67;-10.21
50.0488;6.85;-13.72
50.1270;-0.97;-12.16
50.2052;-8.79;-10.60
50.2834;-16.61;-8.26
50.3616;-24.43;-15.28
50.4398;-32.25;-14.89
50.5180;-40.07;-13.72
50.5962;-47.89;-14.11
50.6744;-55.71;-14.11
50.7526;-63.53;-14.11
50.8308;-71.35;-10.21
50.9090;-79.17;-8.65
50.9872;-86.99;-9.43
51.0654;-94.81;-11.38
51.1436;-102.63;-9.04
51.2219;-110.45;-7.09
51.3001;-118.27;-12.94
51.3783;-126.09;-6.31
51.4565;-133.91;-8.26
51.5347;-141.74;-9.04
51.6129;-149.56;-10.99
51.6911;-157.38;-11.38
51.7693;-165.20;-9.82
51.8475;-173.02;-8.65
51.9257;-180.84;-10.60
52.0039;-188.66;-10.21
52.0821;-196.48;-4.36
52.1603;-204.30;-8.65
52.2385;-212.12;-8.65
52.3167;-219.94;-8.26
52.3949;-227.76;-7.87
52.4731;-235.58;-8.26
52.5513;-243.40;-7.87
52.6295;-251.22;-7.09
52.7077;-259.04;-7.87
52.7859;-266.86;-7.48
52.8641;-274.68;-6.70
52.9423;-282.50;-6.70
53.0205;-290.32;-7.09
53.0987;-298.14;-6.70
53.1769;-305.96;-5.14
53.2551;-313.78;-1.63
53.3333;-321.60;-2.41
53.4115;-329.42;-4.36
53.4897;-337.24;-4.75
53.5679;-345.06;-6.31
53.6461;-352.88;-2.02
53.7243;-360.70;-3.97
53.8025;-368.52;-5.53
53.8807;-376.34;-4.75
53.9589;-384.16;-0.85
54.0371;-391.98;-1.24
54.1153;-399.80;-5.92
54.1935;-407.62;-5.92
54.2717;-415.44;-7.48
54.3499;-423.26;-5.53
54.4281;-431.08;-7.09
54.5063;-438.90;-5.53
54.5845;-446.72;-7.87
54.6627;-454.54;-6.70
54.7409;-462.36;-4.36
54.8191;-470.18;-5.53
54.8973;-478.00;-8.26
54.9755;-485.82;-7.09
55.0537;-493.64;-12.16
55.1319;-501.46;-13.33
55.2101;-509.28;-12.16
55.2883;-517.10;-13.72
55.3665;-524.92;-16.84
55.4447;-532.74;-16.45
55.5229;-540.56;-21.52
55.6011;-548.38;-22.30
55.6793;-556.20;-21.13
55.7575;-564.02;-29.32
55.8357;-571.84;-30.88
55.9139;-579.66;-33.22
55.9921;-587.48;-37.51
56.0703;-595.30;-37.90
56.1485;-603.12;-41.41
56.2267;-610.94;-42.97
56.3049;-618.76;-44.53
56.3831;-626.58;-43.36
56.4613;-634.40;-46.09
56.5395;-642.22;-42.58
56.6177;-650.04;-45.70
56.6959;-657.86;-46.48
56.7741;-665.68;-42.97
56.8523;-673.50;-45.70
56.9305;-681.32;-39.46
57.0087;-689.14;-44.14
57.0869;-696.96;-39.07
57.1651;-704.79;-43.75
57.2434;-712.61;-41.41
57.3216;-720.43;-41.80
57.3998;-728.25;-44.53
57.4780;-736.07;-41.41
57.5562;-743.89;-31.66
57.6344;-751.71;-35.95
57.7126;-759.53;-37.12
57.7908;-767.35;-34.00
57.8690;-775.17;-35.56
57.9472;-782.99;-41.02
58.0254;-790.81;-33.22
58.1036;-798.63;-30.88
58.1818;-806.45;-33.61
58.2600;-814.27;-32.83
58.3382;-822.09;-30.10
58.4164;-829.91;-33.22
58.4946;-837.73;-32.05
58.5728;-845.55;-30.49
58.6510;-853.37;-27.37
58.7292;-861.19;-31.27
58.8074;-869.01;-30.88
58.8856;-876.83;-30.49
58.9638;-884.65;-26.98
59.0420;-892.47;-30.10
59.1202;-900.29;-28.54
59.1984;-908.11;-28.54
59.2766;-915.93;-28.93
59.3548;-923.75;-30.10
59.4330;-931.57;-27.76
59.5112;-939.39;-31.27
59.5894;-947.21;-30.88
59.6676;-955.03;-35.17
59.7458;-962.85;-34.39
59.8240;-970.67;-35.17
59.9022;-978.49;-32.83
59.9804;-986.31;-39.07
60.0586;-994.13;-35.95
60.1368;-988.26;-35.95
60.2150;-980.44;-28.15
60.2932;-972.62;-27.37
60.3714;-964.80;-23.08
60.4496;-956.98;-18.79
60.5278;-949.16;-16.06
60.6060;-941.34;-14.11
60.6842;-933.52;-13.33
60.7624;-925.70;-9.43
60.8406;-917.88;-9.43
60.9188;-910.06;-6.31
60.9970;-902.24;-6.31
61.0752;-894.42;-2.80
61.1534;-886.60;-3.58
61.2316;-878.78;-5.14
61.3098;-870.96;-3.97
61.3880;-863.14;0.32
61.4662;-855.32;6.17
61.5444;-847.50;6.56
61.6226;-839.68;1.88
61.7008;-831.86;2.66
61.7790;-824.04;1.49
61.8572;-816.22;5.78
61.9354;-808.40;3.05
62.0136;-800.58;5.00
62.0918;-792.76;6.17
62.1700;-784.94;5.78
62.2482;-777.12;6.95
62.3264;-769.30;7.34
62.4046;-761.48;10.07
62.4828;-753.66;8.12
62.5610;-745.84;8.90
62.6392;-738.02;11.63
62.7174;-730.20;10.07
62.7956;-722.38;10.07
62.8738;-714.56;10.07
62.9520;-706.74;15.53
63.0302;-698.92;12.02
63.1084;-691.10;13.19
63.1866;-683.28;16.31
63.2649;-675.46;15.53
63.3431;-667.64;17.09
63.4213;-659.82;15.92
63.4995;-652.00;17.87
63.5777;-644.18;19.43
63.6559;-636.36;20.60
63.7341;-628.54;24.11
63.8123;-620.72;22.55
63.8905;-612.90;23.33
63.9687;-605.08;26.45
64.0469;-597.26;28.01
64.1251;-589.44;30.74
64.2033;-581.62;32.69
64.2815;-573.80;35.42
64.3597;-565.98;42.05
64.4380;-558.16;44.78
64.5162;-550.34;44.00
64.5944;-542.52;49.85
64.6726;-534.70;47.90
64.7508;-526.88;49.85
64.8290;-519.06;52.19
64.9073;-511.24;58.04
64.9855;-503.42;59.60
65.0637;-495.60;59.60
65.1419;-487.78;58.82
65.2201;-479.96;62.33
65.2983;-472.14;64.67
65.3766;-464.32;62.33
65.4548;-456.50;64.28
65.5330;-448.68;63.50
65.6112;-440.86;62.33
65.6894;-433.04;59.99
65.7676;-425.22;59.99
65.8459;-417.39;59.99
65.9241;-409.57;58.04
66.0023;-401.75;57.26
66.0805;-393.93;58.43
66.1587;-386.11;59.21
66.2369;-378.29;54.92
66.3152;-370.47;58.04
66.3934;-362.65;55.31
66.4716;-354.83;51.80
66.5498;-347.01;51.41
66.6280;-339.19;51.80
66.7062;-331.37;50.24
66.7845;-323.55;52.58
66.8627;-315.73;52.58
66.9409;-307.91;46.73
67.0191;-300.09;47.90
67.0973;-292.27;49.85
67.1755;-284.45;47.12
67.2538;-276.63;45.17
67.3320;-268.81;42.83
67.4102;-260.99;45.95
67.4884;-253.17;46.73
67.5666;-245.35;41.66
67.6448;-237.53;42.83
67.7231;-229.71;42.83
67.8013;-221.89;44.78
67.8795;-214.07;43.22
67.9577;-206.25;42.05
68.0359;-198.43;42.44
68.1141;-190.61;38.15
68.1924;-182.79;38.54
68.2706;-174.97;40.49
68.3488;-167.15;42.05
68.4270;-159.33;39.71
68.5052;-151.51;36.20
68.5834;-143.69;38.54
68.6617;-135.87;38.54
68.7399;-128.05;35.81
68.8181;-120.23;34.64
68.8963;-112.41;33.47
68.9745;-104.59;40.10
69.0527;-96.77;37.37
69.1310;-88.95;33.47
69.2092;-81.13;36.98
69.2874;-73.31;36.59
