=~=~=~=~=~=~=~=~=~=~=~= PuTTY log 2025.04.09 16:41:07 =~=~=~=~=~=~=~=~=~=~=~=
Choisissez la methode :
1 - Chronoamperometrie
2 - Voltammetrie cyclique
Methode selectionnee : Voltammetrie cyclique
Entrez E1 (en Volts) :
Entrez E2 (en Volts) :
Entrez la vitesse de balayage (en V/s) :
Entrez le nombre de cycles :
Parametres enregistres.
E1 = -1.00 V, E2 = 1.00 V, Vitesse = 0.10 V/s
Cycles = 3.00
Entrez le facteur d'affichage (valeur par défaut = 1, valeur utilisée pour les mesures = 4) :
Facteur d'affichage choisi : 4
Entrez 'ok' pour commencer l'expérience.
Debut
Temps (s) tension (mV) courant (uA)
0.0782;1000.00;40.88
0.1564;992.18;39.71
0.2346;984.36;39.32
0.3128;976.54;37.76
0.3910;968.72;36.98
0.4692;960.90;36.59
0.5474;953.08;35.81
0.6256;945.26;35.42
0.7038;937.44;35.03
0.7820;929.62;34.25
0.8602;921.80;33.86
0.9384;913.98;33.47
1.0166;906.16;33.47
1.0948;898.34;32.69
1.1730;890.52;31.52
1.2512;882.70;32.30
1.3294;874.88;25.28
1.4076;867.06;22.16
1.4858;859.24;30.35
1.5640;851.42;29.96
1.6422;843.60;29.96
1.7204;835.78;28.79
1.7986;827.96;29.18
1.8768;820.14;29.18
1.9550;812.32;28.01
2.0332;804.50;28.40
2.1114;796.68;27.62
2.1896;788.86;26.45
2.2678;781.04;20.21
2.3460;773.22;19.43
2.4242;765.40;19.43
2.5024;757.58;24.89
2.5806;749.76;25.28
2.6588;741.94;24.89
2.7370;734.12;24.89
2.8152;726.30;24.11
2.8934;718.48;16.31
2.9716;710.66;17.87
3.0499;702.84;23.33
3.1281;695.02;22.94
3.2063;687.20;14.75
3.2845;679.38;21.77
3.3627;671.56;22.16
3.4409;663.74;21.77
3.5191;655.92;21.38
3.5973;648.10;20.60
3.6755;640.28;19.43
3.7537;632.46;19.82
3.8319;624.64;13.19
3.9101;616.82;19.43
3.9883;609.00;19.43
4.0665;601.18;19.04
4.1447;593.36;18.26
4.2229;585.54;18.26
4.3011;577.72;18.26
4.3793;569.90;10.46
4.4575;562.08;17.48
4.5357;554.26;17.09
4.6139;546.44;10.07
4.6921;538.62;9.68
4.7703;530.80;16.31
4.8485;522.98;9.29
4.9267;515.16;16.31
5.0049;507.34;15.92
5.0831;499.52;8.51
5.1613;491.70;15.53
5.2395;483.88;8.12
5.3177;476.06;14.75
5.3959;468.24;14.36
5.4741;460.42;5.39
5.5523;452.60;7.34
5.6305;444.78;13.58
5.7087;436.96;6.95
5.7869;429.13;13.19
5.8651;421.31;13.19
5.9433;413.49;5.78
6.0215;405.67;5.39
6.0997;397.85;13.19
6.1779;390.03;13.19
6.2561;382.21;13.58
6.3343;374.39;5.39
6.4125;366.57;5.39
6.4907;358.75;12.41
6.5689;350.93;5.00
6.6471;343.11;5.00
6.7253;335.29;5.00
6.8035;327.47;5.00
6.8817;319.65;3.44
6.9599;311.83;4.61
7.0381;304.01;11.63
7.1163;296.19;4.22
7.1945;288.37;3.83
7.2727;280.55;10.85
7.3509;272.73;3.44
7.4291;264.91;10.46
7.5073;257.09;3.05
7.5855;249.27;2.66
7.6637;241.45;9.29
7.7419;233.63;9.29
7.8201;225.81;6.56
7.8983;217.99;7.73
7.9765;210.17;10.07
8.0547;202.35;7.73
8.1329;194.53;-0.46
8.2111;186.71;-0.46
8.2893;178.89;6.56
8.3675;171.07;6.56
8.4457;163.25;-1.24
8.5239;155.43;6.17
8.6021;147.61;-0.85
8.6803;139.79;5.39
8.7585;131.97;5.78
8.8367;124.15;5.39
8.9149;116.33;-1.24
8.9931;108.51;5.78
9.0714;100.69;-1.63
9.1496;92.87;1.10
9.2278;85.05;5.00
9.3060;77.23;-1.63
9.3842;69.41;5.00
9.4624;61.59;-2.02
9.5406;53.77;-1.63
9.6188;45.95;-2.02
9.6970;38.13;-2.80
9.7752;30.31;-3.19
9.8534;22.49;4.22
9.9316;14.67;-3.97
10.0098;6.85;4.61
10.0880;-0.97;-2.41
10.1662;-8.79;4.61
10.2444;-16.61;-2.41
10.3226;-24.43;4.61
10.4008;-32.25;3.05
10.4790;-40.07;-2.41
10.5572;-47.89;-2.41
10.6354;-55.71;5.00
10.7136;-63.53;5.00
10.7918;-71.35;-1.24
10.8700;-79.17;-2.02
10.9482;-86.99;5.39
11.0264;-94.81;-1.63
11.1046;-102.63;-1.24
11.1828;-110.45;-0.85
11.2610;-118.27;-0.85
11.3392;-126.09;4.61
11.4174;-133.91;6.17
11.4956;-141.74;6.17
11.5738;-149.56;5.78
11.6520;-157.38;7.73
11.7302;-165.20;-1.24
11.8084;-173.02;4.61
11.8866;-180.84;-3.97
11.9648;-188.66;-2.41
12.0430;-196.48;-2.41
12.1212;-204.30;-1.24
12.1994;-212.12;-0.46
12.2776;-219.94;0.32
12.3558;-227.76;-0.46
12.4340;-235.58;6.95
12.5122;-243.40;7.73
12.5904;-251.22;7.73
12.6686;-259.04;8.12
12.7468;-266.86;7.73
12.8250;-274.68;-0.46
12.9032;-282.50;-0.07
12.9814;-290.32;0.32
13.0596;-298.14;-0.07
13.1378;-305.96;-0.07
13.2160;-313.78;-0.07
13.2942;-321.60;-1.63
13.3724;-329.42;-1.24
13.4506;-337.24;4.61
13.5288;-345.06;4.22
13.6070;-352.88;2.66
13.6852;-360.70;-5.53
13.7634;-368.52;-7.09
13.8416;-376.34;-0.85
13.9198;-384.16;-2.80
13.9980;-391.98;-7.48
14.0762;-399.80;-15.67
14.1544;-407.62;-18.40
14.2326;-415.44;-20.74
14.3108;-423.26;-18.40
14.3890;-431.08;-27.76
14.4672;-438.90;-25.03
14.5454;-446.72;-36.73
14.6236;-454.54;-41.41
14.7018;-462.36;-46.09
14.7800;-470.18;-51.55
14.8582;-478.00;-57.40
14.9364;-485.82;-62.86
15.0146;-493.64;-67.93
15.0929;-501.46;-73.00
15.1711;-509.28;-81.58
15.2493;-517.10;-89.38
15.3275;-524.92;-96.01
15.4057;-532.74;-104.59
15.4839;-540.56;-113.56
15.5621;-548.38;-122.14
15.6403;-556.20;-131.11
15.7185;-564.02;-140.86
15.7967;-571.84;-152.17
15.8749;-579.66;-158.02
15.9531;-587.48;-170.50
16.0313;-595.30;-186.49
16.1095;-603.12;-196.24
16.1877;-610.94;-198.97
16.2659;-618.76;-198.97
16.3441;-626.58;-198.97
16.4223;-634.40;-198.97
16.5005;-642.22;-198.97
16.5787;-650.04;-198.97
16.6569;-657.86;-198.97
16.7351;-665.68;-198.97
16.8133;-673.50;-198.97
16.8915;-681.32;-198.97
16.9697;-689.14;-198.97
17.0479;-696.96;-198.97
17.1261;-704.79;-198.97
17.2043;-712.61;-198.97
17.2825;-720.43;-198.97
17.3607;-728.25;-198.97
17.4389;-736.07;-198.97
17.5171;-743.89;-198.97
17.5953;-751.71;-198.97
17.6735;-759.53;-198.97
17.7517;-767.35;-198.97
17.8299;-775.17;-198.97
17.9081;-782.99;-198.97
17.9863;-790.81;-198.97
18.0645;-798.63;-198.97
18.1427;-806.45;-198.97
18.2209;-814.27;-198.97
18.2991;-822.09;-198.97
18.3773;-829.91;-198.97
18.4555;-837.73;-198.97
18.5337;-845.55;-198.97
18.6119;-853.37;-198.97
18.6901;-861.19;-198.97
18.7683;-869.01;-198.97
18.8465;-876.83;-198.97
18.9247;-884.65;-198.97
19.0029;-892.47;-198.97
19.0811;-900.29;-198.97
19.1593;-908.11;-198.97
19.2375;-915.93;-198.97
19.3157;-923.75;-198.97
19.3939;-931.57;-198.97
19.4721;-939.39;-198.97
19.5503;-947.21;-198.97
19.6285;-955.03;-198.97
19.7067;-962.85;-198.97
19.7849;-970.67;-198.97
19.8631;-978.49;-198.97
19.9413;-986.31;-198.97
20.0195;-994.13;-198.97
20.0977;-988.26;-198.97
20.1759;-980.44;-198.97
20.2541;-972.62;-198.97
20.3323;-964.80;-198.97
20.4105;-956.98;-198.97
20.4887;-949.16;-198.97
20.5669;-941.34;-198.97
20.6451;-933.52;-198.97
20.7233;-925.70;-198.97
20.8015;-917.88;-198.97
20.8797;-910.06;-198.97
20.9579;-902.24;-198.97
21.0361;-894.42;-198.97
21.1144;-886.60;-198.97
21.1926;-878.78;-198.97
21.2708;-870.96;-198.97
21.3490;-863.14;-198.97
21.4272;-855.32;-198.97
21.5054;-847.50;-198.97
21.5836;-839.68;-198.97
21.6618;-831.86;-198.97
21.7400;-824.04;-198.97
21.8182;-816.22;-163.48
21.8964;-808.40;-153.34
21.9746;-800.58;-131.50
22.0528;-792.76;-112.39
22.1310;-784.94;-101.47
22.2092;-777.12;-87.82
22.2874;-769.30;-75.73
22.3656;-761.48;-62.08
22.4438;-753.66;-51.55
22.5220;-745.84;-43.75
22.6002;-738.02;-36.34
22.6784;-730.20;-29.71
22.7566;-722.38;-23.08
22.8348;-714.56;-18.40
22.9130;-706.74;-12.55
22.9912;-698.92;-2.80
23.0694;-691.10;0.71
23.1476;-683.28;-2.02
23.2258;-675.46;1.88
23.3040;-667.64;3.44
23.3822;-659.82;5.00
23.4604;-652.00;14.36
23.5386;-644.18;9.29
23.6168;-636.36;9.29
23.6950;-628.54;11.24
23.7732;-620.72;13.19
23.8514;-612.90;13.97
23.9296;-605.08;21.38
24.0078;-597.26;15.14
24.0860;-589.44;16.31
24.1642;-581.62;24.11
24.2424;-573.80;17.48
24.3206;-565.98;18.26
24.3988;-558.16;19.04
24.4770;-550.34;19.04
24.5552;-542.52;25.67
24.6334;-534.70;19.82
24.7116;-526.88;19.04
24.7898;-519.06;25.67
24.8680;-511.24;22.16
24.9462;-503.42;20.99
25.0244;-495.60;20.99
25.1026;-487.78;28.40
25.1808;-479.96;20.99
25.2590;-472.14;21.77
25.3372;-464.32;28.40
25.4154;-456.50;28.40
25.4936;-448.68;24.11
25.5718;-440.86;22.55
25.6500;-433.04;22.55
25.7282;-425.22;28.79
25.8064;-417.39;22.16
25.8846;-409.57;23.33
25.9628;-401.75;22.94
26.0410;-393.93;23.33
26.1192;-386.11;29.96
26.1974;-378.29;23.33
26.2756;-370.47;22.55
26.3538;-362.65;29.18
26.4320;-354.83;29.96
26.5102;-347.01;22.94
26.5884;-339.19;29.57
26.6666;-331.37;22.94
26.7448;-323.55;23.33
26.8230;-315.73;23.72
26.9012;-307.91;29.96
26.9794;-300.09;23.72
27.0576;-292.27;30.35
27.1359;-284.45;23.33
27.2141;-276.63;31.13
27.2923;-268.81;30.35
27.3705;-260.99;23.72
27.4487;-253.17;24.50
27.5269;-245.35;24.11
27.6051;-237.53;24.11
27.6833;-229.71;24.50
27.7615;-221.89;31.52
27.8397;-214.07;24.50
27.9179;-206.25;24.89
27.9961;-198.43;25.28
28.0743;-190.61;25.28
28.1525;-182.79;32.30
28.2307;-174.97;32.30
28.3089;-167.15;25.67
28.3871;-159.33;26.45
28.4653;-151.51;26.45
28.5435;-143.69;28.01
28.6217;-135.87;33.47
28.6999;-128.05;32.69
28.7781;-120.23;34.25
28.8563;-112.41;28.01
28.9345;-104.59;28.01
29.0127;-96.77;35.42
29.0909;-88.95;35.42
29.1691;-81.13;29.96
29.2473;-73.31;29.96
29.3255;-65.49;29.18
29.4037;-57.67;30.35
29.4819;-49.85;30.74
29.5601;-42.03;38.54
29.6383;-34.21;33.08
29.7165;-26.39;32.30
29.7947;-18.57;38.93
29.8729;-10.75;40.49
29.9511;-2.93;40.88
30.0293;4.89;35.03
30.1075;12.71;42.83
30.1857;20.53;44.00
30.2639;28.35;38.15
30.3421;36.17;45.95
30.4203;43.99;40.10
30.4985;51.81;48.29
30.5767;59.63;48.68
30.6549;67.45;43.61
30.7331;75.27;44.00
30.8113;83.09;45.17
30.8895;90.91;45.95
30.9677;98.73;54.14
31.0459;106.55;55.70
31.1241;114.37;54.92
31.2023;122.19;49.07
31.2805;130.01;56.48
31.3587;137.83;57.26
31.4369;145.65;57.26
31.5151;153.48;58.43
31.5933;161.30;58.43
31.6715;169.12;58.04
31.7497;176.94;58.43
31.8279;184.76;57.65
31.9061;192.58;51.02
31.9843;200.40;50.24
32.0625;208.22;50.63
32.1407;216.04;50.24
32.2189;223.86;49.46
32.2971;231.68;56.09
32.3753;239.50;55.70
32.4535;247.32;56.09
32.5317;255.14;55.31
32.6099;262.96;54.92
32.6881;270.78;54.53
32.7663;278.60;54.14
32.8445;286.42;54.14
32.9227;294.24;54.92
33.0009;302.06;46.34
33.0792;309.88;47.12
33.1574;317.70;46.34
33.2356;325.52;46.34
33.3138;333.34;44.78
33.3920;341.16;52.97
33.4702;348.98;54.14
33.5484;356.80;44.78
33.6266;364.62;45.17
33.7048;372.44;51.80
33.7830;380.26;52.19
33.8612;388.08;52.58
33.9394;395.90;52.19
34.0176;403.72;45.56
34.0958;411.54;47.90
34.1740;419.36;45.17
34.2522;427.18;52.97
34.3304;435.00;45.56
34.4086;442.82;46.34
34.4868;450.64;53.75
34.5650;458.46;53.75
34.6432;466.28;54.53
34.7214;474.10;54.53
34.7996;481.92;54.92
34.8778;489.74;54.92
34.9560;497.56;55.31
35.0342;505.38;56.48
35.1124;513.20;49.46
35.1906;521.02;50.63
35.2688;528.84;56.87
35.3470;536.66;58.43
35.4252;544.48;58.82
35.5034;552.30;59.21
35.5816;560.12;59.99
35.6598;567.94;53.36
35.7380;575.76;61.16
35.8162;583.58;60.38
35.8944;591.40;62.33
35.9726;599.22;63.11
36.0508;607.04;56.48
36.1290;614.86;64.28
36.2072;622.68;64.67
36.2854;630.50;65.45
36.3636;638.32;65.84
36.4418;646.14;66.23
36.5200;653.96;59.60
36.5982;661.78;60.77
36.6764;669.60;60.77
36.7546;677.42;68.18
36.8328;685.24;68.57
36.9110;693.06;69.35
36.9892;700.88;69.35
37.0674;708.70;69.74
37.1456;716.52;69.74
37.2238;724.35;70.52
37.3020;732.17;63.50
37.3802;739.99;70.91
37.4584;747.81;72.08
37.5366;755.63;72.86
37.6148;763.45;72.86
37.6930;771.27;72.86
37.7712;779.09;73.25
37.8494;786.91;66.23
37.9276;794.73;73.64
38.0058;802.55;74.03
38.0840;810.37;74.03
38.1622;818.19;74.42
38.2404;826.01;74.81
38.3186;833.83;68.18
38.3968;841.65;75.20
38.4750;849.47;75.59
38.5532;857.29;75.98
38.6314;865.11;75.98
38.7096;872.93;76.76
38.7878;880.75;77.15
38.8660;888.57;76.37
38.9442;896.39;77.15
39.0224;904.21;77.54
39.1007;912.03;77.93
39.1789;919.85;78.32
39.2571;927.67;78.32
39.3353;935.49;78.71
39.4135;943.31;78.71
39.4917;951.13;79.10
39.5699;958.95;80.27
39.6481;966.77;81.05
39.7263;974.59;81.44
39.8045;982.41;82.22
39.8827;990.23;82.61
39.9609;998.05;83.39
40.0391;1005.87;84.17
40.1173;1000.00;83.00
40.1955;992.18;79.10
40.2737;984.36;77.15
40.3519;976.54;74.42
40.4301;968.72;72.47
40.5083;960.90;70.52
40.5865;953.08;69.35
40.6647;945.26;67.40
40.7429;937.44;65.45
40.8211;929.62;63.89
40.8993;921.80;62.33
40.9775;913.98;61.55
41.0557;906.16;60.38
41.1339;898.34;58.04
41.2121;890.52;57.65
41.2903;882.70;56.87
41.3685;874.88;55.70
41.4467;867.06;54.53
41.5249;859.24;53.75
41.6031;851.42;52.97
41.6813;843.60;52.58
41.7595;835.78;51.41
41.8377;827.96;50.63
41.9159;820.14;49.85
41.9941;812.32;49.07
42.0723;804.50;48.68
42.1505;796.68;47.51
42.2287;788.86;47.12
42.3069;781.04;39.32
42.3851;773.22;45.56
42.4633;765.40;44.39
42.5415;757.58;44.39
42.6197;749.76;43.61
42.6979;741.94;44.00
42.7761;734.12;43.22
42.8543;726.30;35.03
42.9325;718.48;34.64
43.0107;710.66;41.66
43.0889;702.84;40.88
43.1671;695.02;40.10
43.2453;687.20;40.49
43.3235;679.38;39.32
43.4017;671.56;38.15
43.4799;663.74;38.54
43.5581;655.92;30.35
43.6363;648.10;37.76
43.7145;640.28;37.76
43.7927;632.46;36.98
43.8709;624.64;36.59
43.9491;616.82;35.81
44.0273;609.00;28.79
44.1055;601.18;27.62
44.1837;593.36;34.64
44.2619;585.54;34.25
44.3401;577.72;34.25
44.4183;569.90;33.86
44.4965;562.08;33.08
44.5747;554.26;25.67
44.6529;546.44;32.30
44.7311;538.62;32.30
44.8093;530.80;31.52
44.8875;522.98;31.13
44.9657;515.16;31.13
45.0439;507.34;30.74
45.1222;499.52;29.96
45.2004;491.70;22.55
45.2786;483.88;22.16
45.3568;476.06;28.79
45.4350;468.24;29.18
45.5132;460.42;27.62
45.5914;452.60;28.40
45.6696;444.78;27.62
45.7478;436.96;27.23
45.8260;429.13;26.84
45.9042;421.31;19.82
45.9824;413.49;19.43
46.0606;405.67;17.09
46.1388;397.85;25.67
46.2170;390.03;25.67
46.2952;382.21;17.87
46.3734;374.39;24.89
46.4516;366.57;24.89
46.5298;358.75;24.50
46.6080;350.93;24.50
46.6862;343.11;23.72
46.7644;335.29;23.72
46.8426;327.47;23.72
46.9208;319.65;22.16
46.9990;311.83;22.16
47.0772;304.01;22.55
47.1554;296.19;22.16
47.2336;288.37;15.53
47.3118;280.55;13.97
47.3900;272.73;22.16
47.4682;264.91;22.16
47.5464;257.09;21.38
47.6246;249.27;13.58
47.7028;241.45;20.60
47.7810;233.63;20.60
47.8592;225.81;13.58
47.9374;217.99;20.21
48.0156;210.17;20.21
48.0938;202.35;20.21
48.1720;194.53;20.21
48.2502;186.71;19.43
48.3284;178.89;19.04
48.4066;171.07;18.65
48.4848;163.25;18.65
48.5630;155.43;19.04
48.6412;147.61;14.36
48.7194;139.79;10.85
48.7976;131.97;10.07
48.8758;124.15;10.46
48.9540;116.33;17.48
49.0322;108.51;17.09
49.1104;100.69;9.68
49.1886;92.87;9.68
49.2668;85.05;15.14
49.3450;77.23;9.68
49.4232;69.41;16.31
49.5014;61.59;8.51
49.5796;53.77;12.02
49.6578;45.95;15.92
49.7360;38.13;15.14
49.8142;30.31;15.53
49.8924;22.49;15.14
49.9706;14.67;7.34
50.0488;6.85;9.68
50.1270;-0.97;15.14
50.2052;-8.79;8.12
50.2834;-16.61;15.53
50.3616;-24.43;7.34
50.4398;-32.25;15.14
50.5180;-40.07;14.36
50.5962;-47.89;7.73
50.6744;-55.71;14.36
50.7526;-63.53;14.75
50.8308;-71.35;13.97
50.9090;-79.17;12.41
50.9872;-86.99;6.95
51.0654;-94.81;14.36
51.1436;-102.63;7.34
51.2219;-110.45;6.56
51.3001;-118.27;6.95
51.3783;-126.09;6.95
51.4565;-133.91;7.34
51.5347;-141.74;13.19
51.6129;-149.56;13.19
51.6911;-157.38;5.39
51.7693;-165.20;2.66
51.8475;-173.02;2.66
51.9257;-180.84;13.19
52.0039;-188.66;7.34
52.0821;-196.48;13.97
52.1603;-204.30;13.97
52.2385;-212.12;7.34
52.3167;-219.94;7.73
52.3949;-227.76;8.12
52.4731;-235.58;14.75
52.5513;-243.40;7.73
52.6295;-251.22;8.51
52.7077;-259.04;14.75
52.7859;-266.86;8.12
52.8641;-274.68;7.34
52.9423;-282.50;8.12
53.0205;-290.32;7.73
53.0987;-298.14;15.53
53.1769;-305.96;13.58
53.2551;-313.78;6.95
53.3333;-321.60;7.73
53.4115;-329.42;7.73
53.4897;-337.24;7.34
53.5679;-345.06;6.56
53.6461;-352.88;6.95
53.7243;-360.70;6.56
53.8025;-368.52;6.17
53.8807;-376.34;12.80
53.9589;-384.16;12.02
54.0371;-391.98;3.83
54.1153;-399.80;3.44
54.1935;-407.62;1.10
54.2717;-415.44;7.73
54.3499;-423.26;-1.24
54.4281;-431.08;3.83
54.5063;-438.90;1.49
54.5845;-446.72;-0.46
54.6627;-454.54;-9.43
54.7409;-462.36;-6.31
54.8191;-470.18;-9.82
54.8973;-478.00;-21.13
54.9755;-485.82;-19.18
55.0537;-493.64;-30.49
55.1319;-501.46;-34.78
55.2101;-509.28;-40.63
55.2883;-517.10;-44.53
55.3665;-524.92;-51.16
55.4447;-532.74;-57.40
55.5229;-540.56;-58.96
55.6011;-548.38;-69.88
55.6793;-556.20;-71.44
55.7575;-564.02;-83.53
55.8357;-571.84;-82.36
55.9139;-579.66;-92.89
55.9921;-587.48;-101.86
56.0703;-595.30;-107.71
56.1485;-603.12;-112.78
56.2267;-610.94;-118.24
56.3049;-618.76;-119.02
56.3831;-626.58;-130.33
56.4613;-634.40;-128.77
56.5395;-642.22;-141.64
56.6177;-650.04;-148.27
56.6959;-657.86;-148.66
56.7741;-665.68;-154.90
56.8523;-673.50;-161.53
56.9305;-681.32;-167.77
57.0087;-689.14;-173.23
57.0869;-696.96;-180.25
57.1651;-704.79;-179.47
57.2434;-712.61;-193.51
57.3216;-720.43;-193.51
57.3998;-728.25;-198.97
57.4780;-736.07;-172.45
57.5562;-743.89;-132.28
57.6344;-751.71;-149.83
57.7126;-759.53;-168.55
57.7908;-767.35;-168.94
57.8690;-775.17;-192.73
57.9472;-782.99;-198.97
58.0254;-790.81;-198.97
58.1036;-798.63;-198.97
58.1818;-806.45;-198.97
58.2600;-814.27;-198.97
58.3382;-822.09;-198.97
58.4164;-829.91;-198.97
58.4946;-837.73;-198.97
58.5728;-845.55;-198.97
58.6510;-853.37;-198.97
58.7292;-861.19;-198.97
58.8074;-869.01;-198.97
58.8856;-876.83;-198.97
58.9638;-884.65;-198.97
59.0420;-892.47;-198.97
59.1202;-900.29;-198.97
59.1984;-908.11;-198.97
59.2766;-915.93;-198.97
59.3548;-923.75;-198.97
59.4330;-931.57;-198.97
59.5112;-939.39;-198.97
59.5894;-947.21;-198.97
59.6676;-955.03;-198.97
59.7458;-962.85;-198.97
59.8240;-970.67;-198.97
59.9022;-978.49;-198.97
59.9804;-986.31;-198.97
60.0586;-994.13;-198.97
60.1368;-988.26;-198.97
60.2150;-980.44;-198.97
60.2932;-972.62;-198.97
60.3714;-964.80;-198.97
60.4496;-956.98;-198.97
60.5278;-949.16;-198.97
60.6060;-941.34;-198.97
60.6842;-933.52;-198.97
60.7624;-925.70;-198.97
60.8406;-917.88;-198.97
60.9188;-910.06;-198.97
60.9970;-902.24;-198.97
61.0752;-894.42;-198.97
61.1534;-886.60;-198.97
61.2316;-878.78;-198.97
61.3098;-870.96;-198.97
61.3880;-863.14;-198.97
61.4662;-855.32;-193.90
61.5444;-847.50;-173.23
61.6226;-839.68;-154.51
61.7008;-831.86;-135.40
61.7790;-824.04;-120.58
61.8572;-816.22;-106.15
61.9354;-808.40;-91.72
62.0136;-800.58;-80.80
62.0918;-792.76;-70.66
62.1700;-784.94;-59.35
62.2482;-777.12;-51.16
62.3264;-769.30;-42.97
62.4046;-761.48;-35.17
62.4828;-753.66;-27.37
62.5610;-745.84;-22.69
62.6392;-738.02;-17.62
62.7174;-730.20;-11.38
62.7956;-722.38;-6.70
62.8738;-714.56;-3.58
62.9520;-706.74;-1.63
63.0302;-698.92;2.66
63.1084;-691.10;10.07
63.1866;-683.28;7.34
63.2649;-675.46;9.68
63.3431;-667.64;11.24
63.4213;-659.82;11.63
63.4995;-652.00;13.19
63.5777;-644.18;14.75
63.6559;-636.36;15.92
63.7341;-628.54;24.11
63.8123;-620.72;17.48
63.8905;-612.90;17.87
63.9687;-605.08;18.65
64.0469;-597.26;19.43
64.1251;-589.44;26.84
64.2033;-581.62;20.60
64.2815;-573.80;21.38
64.3597;-565.98;20.99
64.4380;-558.16;21.38
64.5162;-550.34;22.16
64.5944;-542.52;28.79
64.6726;-534.70;22.55
64.7508;-526.88;22.55
64.8290;-519.06;29.57
64.9073;-511.24;30.35
64.9855;-503.42;23.33
65.0637;-495.60;23.72
65.1419;-487.78;23.33
65.2201;-479.96;24.11
65.2983;-472.14;29.96
65.3766;-464.32;23.72
65.4548;-456.50;23.72
65.5330;-448.68;24.11
65.6112;-440.86;30.74
65.6894;-433.04;24.11
65.7676;-425.22;24.50
65.8459;-417.39;24.89
65.9241;-409.57;31.52
66.0023;-401.75;24.50
66.0805;-393.93;26.06
66.1587;-386.11;24.89
66.2369;-378.29;31.52
66.3152;-370.47;24.89
66.3934;-362.65;25.28
66.4716;-354.83;25.67
66.5498;-347.01;24.89
66.6280;-339.19;26.06
66.7062;-331.37;24.89
66.7845;-323.55;33.86
66.8627;-315.73;31.91
66.9409;-307.91;25.28
67.0191;-300.09;31.91
67.0973;-292.27;25.28
67.1755;-284.45;31.91
67.2538;-276.63;31.91
67.3320;-268.81;26.06
67.4102;-260.99;25.67
67.4884;-253.17;25.67
67.5666;-245.35;33.08
67.6448;-237.53;32.69
67.7231;-229.71;29.96
67.8013;-221.89;26.06
67.8795;-214.07;26.84
67.9577;-206.25;26.84
68.0359;-198.43;26.84
68.1141;-190.61;26.84
68.1924;-182.79;27.23
68.2706;-174.97;27.23
68.3488;-167.15;26.84
68.4270;-159.33;27.62
68.5052;-151.51;33.86
68.5834;-143.69;27.23
68.6617;-135.87;28.01
68.7399;-128.05;28.01
68.8181;-120.23;28.40
68.8963;-112.41;27.62
68.9745;-104.59;34.64
69.0527;-96.77;35.42
69.1310;-88.95;28.01
69.2092;-81.13;35.42
69.2874;-73.31;35.81
69.3656;-65.49;35.81
69.4438;-57.67;29.96
69.5220;-49.85;29.57
69.6003;-42.03;36.98
69.6785;-34.21;36.59
69.7567;-26.39;31.91
69.8349;-18.57;31.13
69.9131;-10.75;38.54
69.9913;-2.93;38.54
70.0696;4.89;38.93
70.1478;12.71;32.69
